File: public_html/data/backup/makrolon-bright_yellow_Y06.csv
wavelength_nm,intensity,intensity_smoothed,,wavelength_nm2,intensity_i0,intensity_i0_smoothed,,wavelength_nm3,,transmission,transmission_perc,transmission_perc_smoothed
173.232,23.872,#N/A,,173.232,26.024,#N/A,,173.232,91.7307,#N/A,#N/A,#N/A
182.226,26.415,30.6581,,182.226,37.219,36.6837,,182.226,70.9718,0.835743,83.5743,#N/A
191.22,30.595,27.3693,,191.22,43.219,43.5829,,191.22,70.7906,0.627983,62.7983,67.5334
200.214,30.41,26.3915,,200.214,38.487,42.1124,,200.214,79.0137,0.626692,62.6692,63.66
209.208,32.044,30.0482,,209.208,40.21,41.34,,209.208,79.6916,0.726854,72.6854,71.4882
218.203,29.496,28.325,,218.203,43.66,39.32,,218.203,67.5584,0.720369,72.0369,76.5333
227.197,25.221,24.6928,,227.197,40.928,41.6867,,227.197,61.6228,0.592343,59.2343,63.978
236.191,26.764,26.3646,,236.191,45.378,43.5585,,236.191,58.9801,0.605267,60.5267,59.0396
245.185,50.579,44.7529,,245.185,68.191,61.595,,245.185,74.1725,0.726566,72.6566,62.6159
254.158,55.485,54.941,,254.158,83.913,79.8665,,254.158,66.1221,0.68791,68.791,70.8133
263.066,59.391,60.1607,,263.066,88.272,85.6838,,263.066,67.2818,0.702124,70.2124,70.6361
271.999,65.661,63.0687,,271.999,96.63,93.8624,,271.999,67.9509,0.671927,67.1927,69.4972
280.958,59.658,60.3747,,280.958,90.533,89.5566,,280.958,65.8964,0.674151,67.4151,68.4189
289.943,61.382,59.982,,289.943,90.255,90.6136,,289.943,68.0095,0.661953,66.1953,66.9906
298.952,63.106,64.1746,,298.952,95.431,93.5602,,298.952,66.1274,0.685917,68.5917,69.2468
307.987,61.284,59.8548,,307.987,92.334,89.9978,,307.987,66.3721,0.665069,66.5069,67.7211
317.047,58.281,59.005,,317.047,95.055,94.2753,,317.047,61.3129,0.625879,62.5879,65.6469
326.132,61.823,63.6216,,326.132,94.958,93.6745,,326.132,65.1056,0.679178,67.9178,64.9314
335.243,65.637,62.8596,,335.243,101.496,98.891,,335.243,64.6695,0.635645,63.5645,63.173
344.379,57.633,61.4707,,344.379,104.217,100.503,,344.379,55.301,0.611632,61.1632,63.4504
353.539,64.437,64.8608,,353.539,106.567,104.59,,353.539,60.4662,0.620142,62.0142,60.0939
362.725,72.573,68.1642,,362.725,115.754,112.854,,362.725,62.6959,0.604001,60.4001,58.7782
371.936,71.163,68.9582,,371.936,123.06,119.205,,371.936,57.8279,0.578485,57.8485,59.8088
381.171,73.615,70.7782,,381.171,137.525,133.26,,381.171,53.5284,0.531129,53.1129,55.8463
390.432,74.21,72.468,,390.432,150.717,144.106,,390.432,49.238,0.502879,50.2879,51.5772
399.718,97.051,84.1528,,399.718,272.022,218.252,,399.718,35.6776,0.385575,38.5575,45.1695
409.028,208.809,164.048,,409.028,1208.244,808.398,,409.028,17.282,0.20293,20.293,28.8716
418.364,375.571,336.319,,418.364,6479.905,4361.01,,418.364,5.79593,0.0771196,7.71196,13.6481
427.724,805.908,593.65,,427.724,23830.084,17724.6,,427.724,3.38189,0.0334931,3.34931,4.79349
437.108,2121.002,1870.21,,437.108,56269.108,46051.4,,437.108,3.76939,0.0406114,4.06114,3.82326
446.518,806.316,1183.29,,446.518,60380.834,61991.5,,446.518,1.33538,0.0190879,1.90879,3.03654
455.952,1381.295,955.408,,455.952,26403.844,35592,,455.952,5.23142,0.0268433,2.68433,1.74224
465.411,4785.622,3983.77,,465.411,11596.916,15200.4,,465.411,41.2663,0.262083,26.2083,11.6495
474.895,4362.292,4572.29,,474.895,6015.105,7261.93,,474.895,72.5223,0.629626,62.9626,45.6349
484.403,3958.352,3997.23,,484.403,4613.299,4880.49,,484.403,85.8031,0.819023,81.9023,73.6152
493.936,5774.268,5063.17,,493.936,6134.021,5491.74,,493.936,94.1351,0.921961,92.1961,87.3741
503.493,9974.938,8640.07,,503.493,10106.778,8836.5,,503.493,98.6955,0.977771,97.7771,95.1807
513.074,14735.475,13371.6,,513.074,14446.963,13216.5,,513.074,101.997,1.01174,101.174,99.5741
522.681,18101.824,17229,,522.681,17402.064,16648.3,,522.681,104.021,1.03488,103.488,102.446
532.311,19438.426,19196.7,,532.311,18380.58,18221.8,,532.311,105.755,1.0535,105.35,104.48
541.966,19383.504,19433.8,,541.966,18090.567,18218.8,,541.966,107.147,1.06669,106.669,106.024
551.645,18789.015,18987.9,,551.645,17389.423,17628.1,,551.645,108.049,1.07714,107.714,107.297
561.348,17743.817,18062.7,,561.348,16250.673,16589.7,,561.348,109.188,1.08879,108.879,108.383
571.076,16320.44,16757.5,,571.076,14842.811,15280.2,,571.076,109.955,1.09668,109.668,109.295
580.828,14737.8,15220,,580.828,13316.289,13768.3,,580.828,110.675,1.10544,110.544,110.164
590.604,13019.309,13547.4,,590.604,11676.05,12159.6,,590.604,111.504,1.11413,111.413,110.868
600.404,11212.269,11747.4,,600.404,9996.849,10502.9,,600.404,112.158,1.11849,111.849,111.638
610.229,9368.458,9897.32,,610.229,8324.554,8809.51,,610.229,112.54,1.12348,112.348,112.085
620.077,7621.126,8119.03,,620.077,6734.089,7201.65,,620.077,113.172,1.12738,112.738,112.461
629.949,6055.619,6505.67,,629.949,5317.543,5729.63,,629.949,113.88,1.13544,113.544,113.035
639.846,4786.391,5156.74,,639.846,4218.878,4532.11,,639.846,113.452,1.13782,113.782,113.802
649.766,3710.753,4016.4,,649.766,3271.211,3533.54,,649.766,113.437,1.13665,113.665,113.571
659.71,2828.79,3075.66,,659.71,2492.87,2714.3,,659.71,113.475,1.13313,113.313,113.269
669.678,2124.318,2320.76,,669.678,1873.849,2048.16,,669.678,113.367,1.13309,113.309,113.341
679.67,1575.25,1729.1,,679.67,1407.015,1539.76,,679.67,111.957,1.12297,112.297,112.821
689.686,1167.477,1279.68,,689.686,1055.543,1148.23,,689.686,110.604,1.11448,111.448,112.155
699.726,861.984,947.882,,699.726,793.442,867.434,,699.726,108.639,1.09274,109.274,110.527
709.789,650.956,712.258,,709.789,609.751,660.452,,709.789,106.758,1.07844,107.844,108.174
719.876,479.384,520.313,,719.876,454.741,495.487,,719.876,105.419,1.0501,105.01,106.35
729.987,362.119,392.866,,729.987,359.991,387.199,,729.987,100.591,1.01464,101.464,103.141
740.121,289.5,309.54,,740.121,300.205,312.262,,740.121,96.4341,0.991285,99.1285,100.205
750.279,226.867,246.902,,750.279,248.84,263.198,,750.279,91.1698,0.938085,93.8085,96.4262
760.46,168.498,192.062,,760.46,204.293,221.999,,760.46,82.4786,0.865147,86.5147,89.7168
770.665,159.267,167.28,,770.665,193.588,199.951,,770.665,82.2711,0.836601,83.6601,84.1314
780.894,140.405,144.381,,780.894,180.465,184.937,,780.894,77.8018,0.780701,78.0701,80.4355
791.146,123.58,127.299,,791.146,155.299,160.44,,791.146,79.5755,0.793436,79.3436,77.214
801.421,105.5,109.827,,801.421,149.967,149.915,,801.421,70.3488,0.732599,73.2599,76.919
811.72,102.019,106.2,,811.72,146.042,147.85,,811.72,69.8559,0.718296,71.8296,72.0692
822.042,97.765,99.8709,,822.042,162.001,155.059,,822.042,60.3484,0.644083,64.4083,67.743
832.387,99.087,99.792,,832.387,212.616,200.136,,832.387,46.6037,0.498621,49.8621,56.4515
842.755,96.971,91.51,,842.755,333.384,272.42,,842.755,29.0869,0.335916,33.5916,41.3009
853.147,107.164,106.17,,853.147,694.657,589.044,,853.147,15.4269,0.180241,18.0241,25.2371
863.562,112.675,111.779,,863.562,925.745,874.019,,863.562,12.1713,0.127891,12.7891,14.7974
874,104.802,108.694,,874,1123.132,1046.42,,874,9.33123,0.103872,10.3872,11.4782
884.461,91.28,94.0586,,884.461,1538.543,1420.4,,884.461,5.93289,0.0662197,6.62197,8.51544
894.946,76.568,80.3113,,894.946,1606.768,1632.49,,894.946,4.76534,0.0491956,4.91956,5.59486
905.453,86.712,80.4203,,905.453,1162.273,1298.52,,905.453,7.46055,0.0619322,6.19322,5.21172
915.983,124.269,107.297,,915.983,779.347,876.084,,915.983,15.9453,0.122473,12.2473,8.7532
926.537,209.207,183.219,,926.537,550.145,611.073,,926.537,38.0276,0.299832,29.9832,20.2221
937.113,231.776,229.258,,937.113,374.39,419.664,,937.113,61.9076,0.54629,54.629,42.4175
947.712,214.886,218.326,,947.712,287.625,308.57,,947.712,74.7105,0.707541,70.7541,63.1121
958.334,193.535,194.693,,958.334,235.305,247.702,,958.334,82.2486,0.785996,78.5996,74.8363
968.979,191.906,190.997,,968.979,219.156,221.753,,968.979,87.5659,0.861306,86.1306,82.8229
979.646,202.815,197.963,,979.646,223.994,219.881,,979.646,90.5448,0.900317,90.0317,87.635
990.336,237.352,222.172,,990.336,255.455,246.471,,990.336,92.9134,0.90141,90.141,90.2691
1001.049,276.882,268.289,,1001.049,300.356,287.985,,1001.049,92.1846,0.931606,93.1606,92.7346
1011.785,369.675,340.463,,1011.785,367.422,339.365,,1011.785,100.613,1.00323,100.323,96.495
1022.543,523.457,478.917,,1022.543,499.288,463.801,,1022.543,104.841,1.03259,103.259,101.487
1033.324,606.36,586.963,,1033.324,578.316,561.291,,1033.324,104.849,1.04574,104.574,104.57
1044.128,630.97,626.285,,1044.128,590.776,587.997,,1044.128,106.804,1.06512,106.512,105.338
1054.954,629.207,631.823,,1054.954,594.94,597.752,,1054.954,105.76,1.057,105.7,106.169
1065.802,602.704,611.669,,1065.802,567.258,573.583,,1065.802,106.249,1.0664,106.64,106.19
1076.673,573.825,583.925,,1076.673,539.548,552.254,,1076.673,106.353,1.05735,105.735,106.422
1087.567,545.295,557.248,,1087.567,514.169,524.895,,1087.567,106.054,1.06164,106.164,106.518
1098.461,529.569,537.006,,1098.461,495.209,503.172,,1098.461,106.938,1.06724,106.724,106.561
1109.207,491.371,498.934,,1109.207,467.849,473.81,,1109.207,105.028,1.05302,105.302,106.208
1119.954,448.338,457.171,,1119.954,424.267,434.548,,1119.954,105.674,1.05206,105.206,105.556
1130.7,409.195,422.661,,1130.7,393.187,403.106,,1130.7,104.071,1.04851,104.851,105.421
1141.446,360.397,373.875,,1141.446,346.154,357.45,,1141.446,104.115,1.04595,104.595,104.647
1152.192,312.216,325.29,,1152.192,303.532,316.029,,1152.192,102.861,1.02931,102.931,103.079
1162.938,268.015,275.552,,1162.938,273.956,282.136,,1162.938,97.8314,0.976663,97.6663,100.51
1173.684,229.069,240.17,,1173.684,239.977,249.836,,1173.684,95.4546,0.961308,96.1308,97.3474
1184.43,204.654,211.637,,1184.43,215.417,222.34,,1184.43,95.0036,0.951863,95.1863,96.0677
1195.177,163.137,174.815,,1195.177,194.106,196.649,,1195.177,84.0453,0.88897,88.897,92.8475
1205.923,140.979,152.89,,1205.923,193.602,190.628,,1205.923,72.819,0.802033,80.2033,85.8933
1216.669,105.643,118.748,,1216.669,158.562,173.626,,1216.669,66.6257,0.683928,68.3928,73.7418
1227.415,93.685,101.989,,1227.415,103.645,120.474,,1227.415,90.3903,0.846559,84.6559,76.3773
1238.161,68.481,75.8676,,1238.161,78.243,85.1732,,1238.161,87.5235,0.890746,89.0746,88.3159
1242.586,68.571,69.084,,1242.586,64.806,76.3368,,1242.586,105.81,0.90499,90.499,