File: public_html/data/backup/makrolon-dark_blue_543.csv
wavelength_nm,intensity,intensity_smoothed,,wavelength_nm2,intensity_i0,intensity_i0_smoothed,,wavelength_nm3,,transmission,transmission_perc,transmission_perc_smoothed
173.232,5.472,#N/A,,173.232,26.024,#N/A,,173.232,21.0267,#N/A,#N/A,#N/A
182.226,7.88,11.747,,182.226,37.219,36.6837,,182.226,21.172,0.320223,32.0223,#N/A
191.22,9.243,10.3983,,191.22,43.219,43.5829,,191.22,21.3864,0.238587,23.8587,25.8575
200.214,10.061,10.558,,200.214,38.487,42.1124,,200.214,26.1413,0.250709,25.0709,24.5153
209.208,7.969,13.0728,,209.208,40.21,41.34,,209.208,19.8185,0.316226,31.6226,33.2858
218.203,12.605,9.5299,,218.203,43.66,39.32,,218.203,28.8708,0.242367,24.2367,23.7999
227.197,9.332,8.65998,,227.197,40.928,41.6867,,227.197,22.801,0.20774,20.774,21.0549
236.191,8.059,8.14208,,236.191,45.378,43.5585,,236.191,17.7597,0.186923,18.6923,20.5798
245.185,13.149,12.1276,,245.185,68.191,61.595,,245.185,19.2826,0.196892,19.6892,17.8186
254.158,15.694,17.8241,,254.158,83.913,79.8665,,254.158,18.7027,0.223173,22.3173,21.4437
263.066,20.42,19.5964,,263.066,88.272,85.6838,,263.066,23.133,0.228706,22.8706,23.7152
271.999,21.692,22.0857,,271.999,96.63,93.8624,,271.999,22.4485,0.235299,23.5299,23.6501
280.958,24.874,22.8497,,280.958,90.533,89.5566,,280.958,27.4751,0.255142,25.5142,23.0258
289.943,25.691,25.2497,,289.943,90.255,90.6136,,289.943,28.4649,0.278652,27.8652,27.3711
298.952,23.054,20.5103,,298.952,95.431,93.5602,,298.952,24.1578,0.21922,21.922,23.9736
307.987,15.871,22.0603,,307.987,92.334,89.9978,,307.987,17.1887,0.24512,24.512,23.9151
317.047,26.507,23.1252,,317.047,95.055,94.2753,,317.047,27.886,0.245295,24.5295,22.582
326.132,18.961,21.1236,,326.132,94.958,93.6745,,326.132,19.9678,0.2255,22.55,23.4782
335.243,23.596,21.64,,335.243,101.496,98.891,,335.243,23.2482,0.218826,21.8826,21.5357
344.379,22.686,25.0603,,344.379,104.217,100.503,,344.379,21.768,0.249349,24.9349,24.6052
353.539,18.834,19.4009,,353.539,106.567,104.59,,353.539,17.6734,0.185494,18.5494,22.6533
362.725,27.666,26.2494,,362.725,115.754,112.854,,362.725,23.9007,0.232596,23.2596,21.0434
371.936,22.578,24.5727,,371.936,123.06,119.205,,371.936,18.3471,0.206138,20.6138,22.52
381.171,36.709,33.6709,,381.171,137.525,133.26,,381.171,26.6926,0.252671,25.2671,22.4422
390.432,36.661,34.726,,390.432,150.717,144.106,,390.432,24.3244,0.240976,24.0976,24.6411
399.718,61.356,50.7013,,399.718,272.022,218.252,,399.718,22.5555,0.232306,23.2306,24.3867
409.028,242.166,159.164,,409.028,1208.244,808.398,,409.028,20.0428,0.196888,19.6888,20.4734
418.364,1639.981,1052.36,,418.364,6479.905,4361.01,,418.364,25.3087,0.24131,24.131,21.6571
427.724,8411.793,5755.08,,427.724,23830.084,17724.6,,427.724,35.299,0.324695,32.4695,27.7967
437.108,30822.915,22800,,437.108,56269.108,46051.4,,437.108,54.7777,0.495099,49.5099,40.3278
446.518,44720.926,44825.6,,446.518,60380.834,61991.5,,446.518,74.0648,0.723093,72.3093,61.7511
455.952,18685.301,25346.4,,455.952,26403.844,35592,,455.952,70.7674,0.712137,71.2137,71.9117
465.411,7629.823,10336.7,,465.411,11596.916,15200.4,,465.411,65.7918,0.680029,68.0029,70.0227
474.895,3418.476,4366.9,,474.895,6015.105,7261.93,,474.895,56.8315,0.601342,60.1342,64.3388
484.403,2076.699,2387.34,,484.403,4613.299,4880.49,,484.403,45.0155,0.489161,48.9161,54.8207
493.936,1905.356,1912.33,,493.936,6134.021,5491.74,,493.936,31.0621,0.34822,34.822,42.026
503.493,1956.554,1959.7,,503.493,10106.778,8836.5,,503.493,19.3588,0.221773,22.1773,28.2107
513.074,1706.949,1810.17,,513.074,14446.963,13216.5,,513.074,11.8153,0.136963,13.6963,17.6526
522.681,1011.149,1235.13,,522.681,17402.064,16648.3,,522.681,5.81051,0.0741893,7.41893,10.4691
532.311,385.66,543.331,,532.311,18380.58,18221.8,,532.311,2.09819,0.0298176,2.98176,5.00822
541.966,149.866,200.503,,541.966,18090.567,18218.8,,541.966,0.828421,0.0110053,1.10053,1.87836
551.645,85.956,101.115,,551.645,17389.423,17628.1,,551.645,0.4943,0.00573599,0.573599,0.789733
561.348,49.115,60.5787,,561.348,16250.673,16589.7,,561.348,0.302234,0.00365159,0.365159,0.46836
571.076,25.871,36.0477,,571.076,14842.811,15280.2,,571.076,0.1743,0.00235911,0.235911,0.297416
580.828,24.988,23.527,,580.828,13316.289,13768.3,,580.828,0.18765,0.00170878,0.170878,0.195157
590.604,26.306,23.9804,,590.604,11676.05,12159.6,,590.604,0.225299,0.00197214,0.197214,0.187455
600.404,30.513,26.3644,,600.404,9996.849,10502.9,,600.404,0.305226,0.00251021,0.251021,0.224351
610.229,25.529,23.138,,610.229,8324.554,8809.51,,610.229,0.306671,0.00262648,0.262648,0.280241
620.077,28.663,25.3833,,620.077,6734.089,7201.65,,620.077,0.42564,0.00352465,0.352465,0.307734
629.949,19.617,27.421,,629.949,5317.543,5729.63,,629.949,0.368911,0.00478583,0.478583,0.46043
639.846,24.491,25.3351,,639.846,4218.878,4532.11,,639.846,0.58051,0.00559015,0.559015,0.462644
649.766,29.97,26.3917,,649.766,3271.211,3533.54,,649.766,0.916174,0.00746892,0.746892,0.627863
659.71,66.681,50.5954,,659.71,2492.87,2714.3,,659.71,2.67487,0.0186403,1.86403,1.1958
669.678,270.377,199.018,,669.678,1873.849,2048.16,,669.678,14.429,0.0971689,9.71689,4.82941
679.67,576.167,492.256,,679.67,1407.015,1539.76,,679.67,40.9496,0.319697,31.9697,19.7238
689.686,734.696,697.742,,689.686,1055.543,1148.23,,689.686,69.6036,0.607665,60.7665,46.4288
699.726,690.503,708.547,,699.726,793.442,867.434,,699.726,87.0263,0.816831,81.6831,72.1162
709.789,559.808,601.704,,709.789,609.751,660.452,,709.789,91.8093,0.911049,91.1049,87.4091
719.876,414.858,455.839,,719.876,454.741,495.487,,719.876,91.2295,0.919981,91.9981,92.3258
729.987,318.397,343.21,,729.987,359.991,387.199,,729.987,88.4458,0.886392,88.6392,90.7592
740.121,254.397,268.905,,740.121,300.205,312.262,,740.121,84.7411,0.861153,86.1153,87.0072
750.279,188.156,207.204,,750.279,248.84,263.198,,750.279,75.6132,0.787256,78.7256,82.9028
760.46,128.08,151.223,,760.46,204.293,221.999,,760.46,62.6943,0.681189,68.1189,74.5689
770.665,118.588,123.976,,770.665,193.588,199.951,,770.665,61.2579,0.620031,62.0031,64.0529
780.894,97.243,103.864,,780.894,180.465,184.937,,780.894,53.8847,0.561618,56.1618,59.3111
791.146,77.105,81.3412,,791.146,155.299,160.44,,791.146,49.6494,0.506987,50.6987,53.0231
801.421,62.23,68.7164,,801.421,149.967,149.915,,801.421,41.4958,0.45837,45.837,48.4479
811.72,59.128,61.402,,811.72,146.042,147.85,,811.72,40.487,0.415299,41.5299,42.9542
822.042,49.824,52.9514,,822.042,162.001,155.059,,822.042,30.7554,0.341492,34.1492,37.7001
832.387,65.924,63.4171,,832.387,212.616,200.136,,832.387,31.0061,0.31687,31.687,32.4176
842.755,103.852,84.2628,,842.755,333.384,272.42,,842.755,31.1509,0.309312,30.9312,31.4389
853.147,253.227,204.123,,853.147,694.657,589.044,,853.147,36.4535,0.346533,34.6533,32.8145
863.562,417.861,376.256,,863.562,925.745,874.019,,863.562,45.1378,0.43049,43.049,38.5573
874,630.53,554.809,,874,1123.132,1046.42,,874,56.1403,0.530197,53.0197,47.8907
884.461,1007.022,898.282,,884.461,1538.543,1420.4,,884.461,65.453,0.632413,63.2413,58.4614
894.946,1166.85,1162.67,,894.946,1606.768,1632.49,,894.946,72.6209,0.712207,71.2207,67.591
905.453,877.919,970.043,,905.453,1162.273,1298.52,,905.453,75.5347,0.747037,74.7037,73.3504
915.983,561.191,644.163,,915.983,779.347,876.084,,915.983,72.0078,0.735275,73.5275,74.6162
926.537,371.723,424.716,,926.537,550.145,611.073,,926.537,67.5682,0.695034,69.5034,71.8318
937.113,220.799,261.929,,937.113,374.39,419.664,,937.113,58.9757,0.624141,62.4141,66.2333
947.712,150.055,170.356,,947.712,287.625,308.57,,947.712,52.1704,0.552083,55.2083,58.6318
958.334,110.22,120.311,,958.334,235.305,247.702,,958.334,46.8413,0.485708,48.5708,51.2788
968.979,88.383,93.8767,,968.979,219.156,221.753,,968.979,40.3288,0.42334,42.334,45.4314
979.646,81.999,81.8281,,979.646,223.994,219.881,,979.646,36.6077,0.372146,37.2146,39.1458
990.336,78.795,76.131,,990.336,255.455,246.471,,990.336,30.845,0.308884,30.8884,33.9022
1001.049,71.863,74.5452,,1001.049,300.356,287.985,,1001.049,23.9259,0.258851,25.8851,28.8532
1011.785,75.019,73.4142,,1011.785,367.422,339.365,,1011.785,20.4177,0.216328,21.6328,23.5922
1022.543,78.445,78.9342,,1022.543,499.288,463.801,,1022.543,15.7114,0.17019,17.019,19.0815
1033.324,63.778,68.8713,,1033.324,578.316,561.291,,1033.324,11.0282,0.122702,12.2702,14.7563
1044.128,52.563,60.9676,,1044.128,590.776,587.997,,1044.128,8.89728,0.103687,10.3687,11.4778
1054.954,40.981,43.5276,,1054.954,594.94,597.752,,1054.954,6.88826,0.0728189,7.28189,8.40423
1065.802,27.035,32.9631,,1065.802,567.258,573.583,,1065.802,4.76591,0.0574688,5.74688,6.4084
1076.673,26.018,29.8664,,1076.673,539.548,552.254,,1076.673,4.82218,0.0540809,5.40809,5.603
1087.567,22.445,24.5553,,1087.567,514.169,524.895,,1087.567,4.3653,0.0467813,4.67813,5.14668
1098.461,19.588,22.9828,,1098.461,495.209,503.172,,1098.461,3.9555,0.0456759,4.56759,4.83623
1109.207,17.447,20.6073,,1109.207,467.849,473.81,,1109.207,3.72919,0.0434928,4.34928,4.43184
1119.954,19.748,17.4834,,1119.954,424.267,434.548,,1119.954,4.65462,0.0402337,4.02337,3.58419
1130.7,20.308,21.9629,,1130.7,393.187,403.106,,1130.7,5.16497,0.0544843,5.44843,5.07461
1141.446,15.673,18.1709,,1141.446,346.154,357.45,,1141.446,4.52775,0.0508347,5.08347,5.55071
1152.192,17.842,16.7482,,1152.192,303.532,316.029,,1152.192,5.87813,0.0529957,5.29957,4.97711
1162.938,17.998,17.6279,,1162.938,273.956,282.136,,1162.938,6.56967,0.0624802,6.24802,5.8006
1173.684,20.322,17.8804,,1173.684,239.977,249.836,,1173.684,8.46831,0.0715683,7.15683,6.23344
1184.43,21.909,20.3285,,1184.43,215.417,222.34,,1184.43,10.1705,0.0914302,9.14302,7.72337
1195.177,25.215,26.1615,,1195.177,194.106,196.649,,1195.177,12.9903,0.133037,13.3037,10.6392
1205.923,42.518,41.1417,,1205.923,193.602,190.628,,1205.923,21.9615,0.215822,21.5822,17.149
1216.669,34.278,39.4545,,1216.669,158.562,173.626,,1216.669,21.618,0.227239,22.7239,22.1535
1227.415,16.139,19.7469,,1227.415,103.645,120.474,,1227.415,15.5714,0.163909,16.3909,18.8116
1238.161,7.746,11.8516,,1238.161,78.243,85.1732,,1238.161,9.89993,0.139147,13.9147,16.2412
1242.586,14.241,14.4773,,1242.586,64.806,76.3368,,1242.586,21.9748,0.189651,18.9651,