File: public_html/data/backup/makrolon-dark_brown_819.csv
wavelength_nm,intensity,intensity_smoothed,,wavelength_nm2,intensity_i0,intensity_i0_smoothed,,wavelength_nm3,,transmission,transmission_perc,transmission_perc_smoothed
173.232,8.177,#N/A,,173.232,26.024,#N/A,,173.232,31.421,#N/A,#N/A,#N/A
182.226,8.659,10.6277,,182.226,37.219,36.6837,,182.226,23.265,0.289712,28.9712,#N/A
191.22,12.929,13.1111,,191.22,43.219,43.5829,,191.22,29.9151,0.300831,30.0831,28.2468
200.214,15.199,11.8063,,200.214,38.487,42.1124,,200.214,39.4913,0.280352,28.0352,27.7999
209.208,15.923,14.1183,,209.208,40.21,41.34,,209.208,39.5996,0.341517,34.1517,30.6716
218.203,16.192,14.106,,218.203,43.66,39.32,,218.203,37.0866,0.358749,35.8749,29.2911
227.197,16.098,13.46,,227.197,40.928,41.6867,,227.197,39.3325,0.322886,32.2886,30.3365
236.191,9.731,11.6909,,236.191,45.378,43.5585,,236.191,21.4443,0.268395,26.8395,32.4602
245.185,8.455,8.91608,,245.185,68.191,61.595,,245.185,12.399,0.144753,14.4753,20.2491
254.158,13.997,12.97,,254.158,83.913,79.8665,,254.158,16.6804,0.162395,16.2395,15.3507
263.066,6.903,6.63775,,263.066,88.272,85.6838,,263.066,7.82015,0.0774679,7.74679,12.9458
271.999,10.717,10.3883,,271.999,96.63,93.8624,,271.999,11.0908,0.110676,11.0676,9.58825
280.958,8.986,8.72844,,280.958,90.533,89.5566,,280.958,9.92566,0.0974628,9.74628,10.1476
289.943,9.346,12.4255,,289.943,90.255,90.6136,,289.943,10.3551,0.137126,13.7126,11.3093
298.952,14.614,10.7108,,298.952,95.431,93.5602,,298.952,15.3137,0.114481,11.4481,11.4806
307.987,8.792,8.57089,,307.987,92.334,89.9978,,307.987,9.52195,0.0952345,9.52345,12.7266
317.047,10.97,10.5408,,317.047,95.055,94.2753,,317.047,11.5407,0.111809,11.1809,10.6926
326.132,13.511,13.4363,,326.132,94.958,93.6745,,326.132,14.2284,0.143436,14.3436,11.653
335.243,11.415,10.4266,,335.243,101.496,98.891,,335.243,11.2467,0.105436,10.5436,11.4328
344.379,9.592,11.5814,,344.379,104.217,100.503,,344.379,9.20387,0.115235,11.5235,11.1032
353.539,17.036,12.2614,,353.539,106.567,104.59,,353.539,15.9862,0.117232,11.7232,11.3034
362.725,14.05,12.0463,,362.725,115.754,112.854,,362.725,12.1378,0.106742,10.6742,12.8058
371.936,9.595,11.0587,,371.936,123.06,119.205,,371.936,7.79701,0.0927704,9.27704,11.5204
381.171,10.292,12.5342,,381.171,137.525,133.26,,381.171,7.48373,0.0940584,9.40584,9.15599
390.432,14.171,12.2191,,390.432,150.717,144.106,,390.432,9.40239,0.0847921,8.47921,7.67137
399.718,10.573,10.3537,,399.718,272.022,218.252,,399.718,3.88682,0.0474392,4.74392,6.90387
409.028,16.898,17.4659,,409.028,1208.244,808.398,,409.028,1.39856,0.0216056,2.16056,3.33054
418.364,14.615,13.7867,,418.364,6479.905,4361.01,,418.364,0.225543,0.00316137,0.316137,0.946584
427.724,22.584,17.3889,,427.724,23830.084,17724.6,,427.724,0.094771,0.000981065,0.0981065,0.186629
437.108,51.836,42.2304,,437.108,56269.108,46051.4,,437.108,0.0921216,0.000917027,0.0917027,0.0947598
446.518,56.681,59.3495,,446.518,60380.834,61991.5,,446.518,0.0938725,0.000957381,0.0957381,0.0943247
455.952,33.278,40.8837,,455.952,26403.844,35592,,455.952,0.126035,0.00114868,0.114868,0.103745
465.411,24.476,24.5897,,465.411,11596.916,15200.4,,465.411,0.211056,0.0016177,0.16177,0.140769
474.895,19.037,22.3694,,474.895,6015.105,7261.93,,474.895,0.316487,0.00308037,0.308037,0.232276
484.403,18.923,16.2219,,484.403,4613.299,4880.49,,484.403,0.410184,0.00332383,0.332383,0.295491
493.936,23.612,22.434,,493.936,6134.021,5491.74,,493.936,0.384935,0.00408505,0.408505,0.39211
503.493,31.551,25.4162,,503.493,10106.778,8836.5,,503.493,0.312177,0.00287627,0.287627,0.352707
513.074,36.396,36.1244,,513.074,14446.963,13216.5,,513.074,0.251928,0.00273328,0.273328,0.290283
522.681,48.119,52.5498,,522.681,17402.064,16648.3,,522.681,0.276513,0.00315646,0.315646,0.298346
532.311,65.482,62.352,,532.311,18380.58,18221.8,,532.311,0.356256,0.00342184,0.342184,0.31696
541.966,67.712,64.9754,,541.966,18090.567,18218.8,,541.966,0.374295,0.00356638,0.356638,0.346146
551.645,71.627,74.1454,,551.645,17389.423,17628.1,,551.645,0.4119,0.00420609,0.420609,0.393067
561.348,78.041,76.5942,,561.348,16250.673,16589.7,,561.348,0.480232,0.00461697,0.461697,0.436866
571.076,78.588,75.7614,,571.076,14842.811,15280.2,,571.076,0.529468,0.00495814,0.495814,0.472845
580.828,74.948,73.0851,,580.828,13316.289,13768.3,,580.828,0.562829,0.00530822,0.530822,0.525582
590.604,74.846,75.718,,590.604,11676.05,12159.6,,590.604,0.641022,0.00622701,0.622701,0.581434
600.404,70.816,73.1302,,600.404,9996.849,10502.9,,600.404,0.708383,0.00696288,0.696288,0.654716
610.229,68.654,72.2647,,610.229,8324.554,8809.51,,610.229,0.824717,0.00820304,0.820304,0.747089
620.077,58.382,60.3045,,620.077,6734.089,7201.65,,620.077,0.866962,0.00837371,0.837371,0.835509
629.949,54.163,53.8022,,629.949,5317.543,5729.63,,629.949,1.01857,0.00939017,0.939017,0.868236
639.846,46.267,46.2875,,639.846,4218.878,4532.11,,639.846,1.09667,0.0102133,1.02133,0.985708
649.766,36.662,38.6902,,649.766,3271.211,3533.54,,649.766,1.12075,0.0109494,1.09494,1.11974
659.71,38.297,37.0753,,659.71,2492.87,2714.3,,659.71,1.53626,0.0136593,1.36593,1.18363
669.678,31.186,30.4039,,669.678,1873.849,2048.16,,669.678,1.66427,0.0148444,1.48444,1.41398
679.67,28.22,27.979,,679.67,1407.015,1539.76,,679.67,2.00566,0.018171,1.8171,1.59754
689.686,27.325,25.7798,,689.686,1055.543,1148.23,,689.686,2.58872,0.0224517,2.24517,1.89871
699.726,24.125,22.2957,,699.726,793.442,867.434,,699.726,3.04055,0.025703,2.5703,2.3625
709.789,19.669,20.4155,,709.789,609.751,660.452,,709.789,3.22574,0.0309115,3.09115,2.86829
719.876,12.009,16.4058,,719.876,454.741,495.487,,719.876,2.64084,0.0331104,3.31104,3.45955
729.987,11.235,15.6326,,729.987,359.991,387.199,,729.987,3.12091,0.0403737,4.03737,3.69029
740.121,14.645,13.9312,,740.121,300.205,312.262,,740.121,4.87833,0.0446139,4.46139,4.13772
750.279,11.259,11.9874,,750.279,248.84,263.198,,750.279,4.52459,0.0455452,4.55452,4.82493
760.46,15.481,14.9156,,760.46,204.293,221.999,,760.46,7.57784,0.0671877,6.71877,5.89256
770.665,16.129,14.3696,,770.665,193.588,199.951,,770.665,8.33161,0.0718654,7.18654,7.28762
780.894,13.962,11.5944,,780.894,180.465,184.937,,780.894,7.73668,0.0626936,6.26936,6.4601
791.146,19.769,17.1431,,791.146,155.299,160.44,,791.146,12.7296,0.10685,10.685,8.2871
801.421,8.617,11.7596,,801.421,149.967,149.915,,801.421,5.74593,0.0784419,7.84419,9.91754
811.72,18.055,13.7207,,811.72,146.042,147.85,,811.72,12.3629,0.0928014,9.28014,7.0534
822.042,14.824,16.1244,,822.042,162.001,155.059,,822.042,9.15056,0.103989,10.3989,10.8214
832.387,10.761,12.467,,832.387,212.616,200.136,,832.387,5.06124,0.0622924,6.22924,8.07015
842.755,11.637,10.6152,,842.755,333.384,272.42,,842.755,3.49057,0.0389662,3.89662,5.71962
853.147,19.124,16.8788,,853.147,694.657,589.044,,853.147,2.75301,0.0286545,2.86545,3.42208
863.562,15.341,13.3606,,863.562,925.745,874.019,,863.562,1.65715,0.0152864,1.52864,2.01551
874,8.261,12.2422,,874,1123.132,1046.42,,874,0.735532,0.0116991,1.16991,1.4091
884.461,12.313,8.47908,,884.461,1538.543,1420.4,,884.461,0.800303,0.00596949,0.596949,0.873108
894.946,16.068,14.5718,,894.946,1606.768,1632.49,,894.946,1.00002,0.00892611,0.892611,0.751097
905.453,9.682,8.77169,,905.453,1162.273,1298.52,,905.453,0.833023,0.00675514,0.675514,0.747731
915.983,13.36,13.7476,,915.983,779.347,876.084,,915.983,1.71426,0.0156921,1.56921,1.11985
926.537,8.48,11.0855,,926.537,550.145,611.073,,926.537,1.54141,0.0181411,1.81411,1.82085
937.113,13.867,14.7346,,937.113,374.39,419.664,,937.113,3.70389,0.0351105,3.51105,2.89832
947.712,16.068,12.5716,,947.712,287.625,308.57,,947.712,5.58644,0.0407415,4.07415,3.73619
958.334,18.99,13.2712,,958.334,235.305,247.702,,958.334,8.07038,0.0535774,5.35774,4.45848
968.979,3.451,11.3563,,968.979,219.156,221.753,,968.979,1.57468,0.0512114,5.12114,6.6058
979.646,12.178,16.0363,,979.646,223.994,219.881,,979.646,5.43675,0.0729314,7.29314,5.57142
990.336,13.352,13.0365,,990.336,255.455,246.471,,990.336,5.22675,0.0528926,5.28926,5.97122
1001.049,11.155,10.4648,,1001.049,300.356,287.985,,1001.049,3.71393,0.0363381,3.63381,4.63802
1011.785,8.766,11.4847,,1011.785,367.422,339.365,,1011.785,2.38581,0.0338416,3.38416,3.18149
1022.543,9.548,10.4411,,1022.543,499.288,463.801,,1022.543,1.91232,0.0225121,2.25121,2.63096
1033.324,12.956,11.3786,,1033.324,578.316,561.291,,1033.324,2.2403,0.0202723,2.02723,2.23485
1044.128,17.897,15.5514,,1044.128,590.776,587.997,,1044.128,3.02941,0.026448,2.6448,2.4767
1054.954,11.006,12.3526,,1054.954,594.94,597.752,,1054.954,1.84993,0.0206651,2.06651,2.5009
1065.802,14.645,15.6642,,1065.802,567.258,573.583,,1065.802,2.58172,0.0273094,2.73094,2.32583
1076.673,9.359,11.8949,,1076.673,539.548,552.254,,1076.673,1.7346,0.0215388,2.15388,2.51831
1087.567,8.328,12.6636,,1087.567,514.169,524.895,,1087.567,1.6197,0.024126,2.4126,2.26888
1098.461,6.822,11.656,,1098.461,495.209,503.172,,1098.461,1.3776,0.023165,2.3165,2.31303
1109.207,10.387,12.629,,1109.207,467.849,473.81,,1109.207,2.22016,0.0266541,2.66541,2.1677
1119.954,14.565,13.3821,,1119.954,424.267,434.548,,1119.954,3.43298,0.0307955,3.07955,2.89754
1130.7,8.901,10.0865,,1130.7,393.187,403.106,,1130.7,2.26381,0.025022,2.5022,2.64605
1141.446,12.666,13.9605,,1141.446,346.154,357.45,,1141.446,3.65907,0.0390559,3.90559,3.21873
1152.192,12.862,11.7176,,1152.192,303.532,316.029,,1152.192,4.23744,0.0370775,3.70775,3.5212
1162.938,8.941,11.421,,1162.938,273.956,282.136,,1162.938,3.26366,0.0404805,4.04805,3.56986
1173.684,9.998,8.87388,,1173.684,239.977,249.836,,1173.684,4.16623,0.0355188,3.55188,3.56171
1184.43,8.854,8.90552,,1184.43,215.417,222.34,,1184.43,4.11017,0.0400537,4.00537,3.63761
1195.177,7.332,6.04556,,1195.177,194.106,196.649,,1195.177,3.77732,0.0307429,3.07429,2.99298
1205.923,2.896,5.48506,,1205.923,193.602,190.628,,1205.923,1.49585,0.0287736,2.87736,3.85327
1216.669,3.1,3.15166,,1216.669,158.562,173.626,,1216.669,1.95507,0.018152,1.8152,2.76039
1227.415,5.323,7.02672,,1227.415,103.645,120.474,,1227.415,5.1358,0.0583255,5.83255,3.42189
1238.161,6.671,4.08443,,1238.161,78.243,85.1732,,1238.161,8.526,0.0479544,4.79544,7.09777
1242.586,-1.432,3.82029,,1242.586,64.806,76.3368,,1242.586,-2.20967,0.0500452,5.00452,