File: public_html/data/backup/makrolon-turkish_blue_543.csv
wavelength_nm,intensity,intensity_smoothed,,wavelength_nm2,intensity_i0,intensity_i0_smoothed,,wavelength_nm3,,transmission,transmission_perc,transmission_perc_smoothed
173.232,14.62,#N/A,,173.232,26.024,#N/A,,173.232,56.1789,#N/A,#N/A,#N/A
182.226,23.965,23.0048,,182.226,37.219,36.6837,,182.226,64.3892,0.627113,62.7113,#N/A
191.22,23.415,24.3604,,191.22,43.219,43.5829,,191.22,54.1776,0.558944,55.8944,55.9057
200.214,25.866,21.8599,,200.214,38.487,42.1124,,200.214,67.2071,0.519085,51.9085,51.4675
209.208,23.225,24.4081,,209.208,40.21,41.34,,209.208,57.7593,0.590423,59.0423,59.5951
218.203,26.585,22.3791,,218.203,43.66,39.32,,218.203,60.891,0.569152,56.9152,55.668
227.197,25.489,24.2857,,227.197,40.928,41.6867,,227.197,62.2777,0.582577,58.2577,55.9113
236.191,26.303,24.8777,,236.191,45.378,43.5585,,236.191,57.9642,0.571132,57.1132,53.1772
245.185,26.208,26.4813,,245.185,68.191,61.595,,245.185,38.4332,0.429926,42.9926,46.703
254.158,29.385,28.0427,,254.158,83.913,79.8665,,254.158,35.0184,0.351119,35.1119,39.5938
263.066,28.016,28.0523,,263.066,88.272,85.6838,,263.066,31.7383,0.327393,32.7393,35.4119
271.999,31.284,30.7623,,271.999,96.63,93.8624,,271.999,32.375,0.327738,32.7738,35.1195
280.958,34.46,34.1937,,280.958,90.533,89.5566,,280.958,38.0635,0.381811,38.1811,36.3145
289.943,34.455,32.6854,,289.943,90.255,90.6136,,289.943,38.1752,0.360712,36.0712,36.2083
298.952,29.359,29.6632,,298.952,95.431,93.5602,,298.952,30.7646,0.31705,31.705,35.1565
307.987,27.989,28.9064,,307.987,92.334,89.9978,,307.987,30.3128,0.32119,32.119,32.274
317.047,36.256,33.3037,,317.047,95.055,94.2753,,317.047,38.1421,0.35326,35.326,32.3773
326.132,19.395,22.786,,326.132,94.958,93.6745,,326.132,20.4248,0.243246,24.3246,32.7228
335.243,23.849,24.5172,,335.243,101.496,98.891,,335.243,23.4975,0.247921,24.7921,24.3901
344.379,23.757,24.8372,,344.379,104.217,100.503,,344.379,22.7957,0.247129,24.7129,24.6533
353.539,23.591,24.7853,,353.539,106.567,104.59,,353.539,22.1372,0.236975,23.6975,23.6824
362.725,25.243,24.0862,,362.725,115.754,112.854,,362.725,21.8075,0.213427,21.3427,21.8599
371.936,25.87,27.0234,,371.936,123.06,119.205,,371.936,21.0223,0.226697,22.6697,22.3123
381.171,30.019,32.3267,,381.171,137.525,133.26,,381.171,21.828,0.242584,24.2584,23.3008
390.432,26.782,28.7273,,390.432,150.717,144.106,,390.432,17.7697,0.199348,19.9348,22.2166
399.718,57.279,44.3417,,399.718,272.022,218.252,,399.718,21.0568,0.203167,20.3167,19.4211
409.028,284.64,187.119,,409.028,1208.244,808.398,,409.028,23.5582,0.231468,23.1468,21.7125
418.364,1533.425,1036.18,,418.364,6479.905,4361.01,,418.364,23.6643,0.2376,23.76,23.8319
427.724,6807.97,4855.93,,427.724,23830.084,17724.6,,427.724,28.5688,0.273966,27.3966,25.1685
437.108,22430.585,17010.2,,437.108,56269.108,46051.4,,437.108,39.8631,0.369374,36.9374,31.4736
446.518,25786.157,27556,,446.518,60380.834,61991.5,,446.518,42.7059,0.444513,44.4513,41.9617
455.952,13226.183,15871.7,,455.952,26403.844,35592,,455.952,50.0919,0.445935,44.5935,42.7428
465.411,8429.53,9937.26,,465.411,11596.916,15200.4,,465.411,72.6877,0.653751,65.3751,54.5969
474.895,4822.195,5661.37,,474.895,6015.105,7261.93,,474.895,80.1681,0.779596,77.9596,72.6544
484.403,3701.881,3917.97,,484.403,4613.299,4880.49,,484.403,80.2437,0.802781,80.2781,79.6171
493.936,4784.188,4319.57,,493.936,6134.021,5491.74,,493.936,77.9943,0.786558,78.6558,79.6242
503.493,7352.22,6575.35,,503.493,10106.778,8836.5,,503.493,72.7454,0.744112,74.4112,76.8043
513.074,9228.456,8799.1,,513.074,14446.963,13216.5,,513.074,63.8782,0.665767,66.5767,70.808
522.681,8715.134,9013.78,,522.681,17402.064,16648.3,,522.681,50.081,0.541422,54.1422,60.7116
532.311,6330.263,7119.61,,532.311,18380.58,18221.8,,532.311,34.44,0.390719,39.0719,46.7369
541.966,3570.755,4351.6,,541.966,18090.567,18218.8,,541.966,19.7382,0.238852,23.8852,31.3261
551.645,1458.272,2014.39,,551.645,17389.423,17628.1,,551.645,8.38597,0.114271,11.4271,17.3884
561.348,439.591,665.502,,561.348,16250.673,16589.7,,561.348,2.70506,0.0401153,4.01153,7.26171
571.076,176.152,236.342,,571.076,14842.811,15280.2,,571.076,1.18678,0.0154672,1.54672,2.55671
580.828,80.623,104.63,,580.828,13316.289,13768.3,,580.828,0.605446,0.00759933,0.759933,1.10611
590.604,48.14,52.7227,,590.604,11676.05,12159.6,,590.604,0.412297,0.0043359,0.43359,0.583714
600.404,26.424,30.4052,,600.404,9996.849,10502.9,,600.404,0.264323,0.00289494,0.289494,0.371445
610.229,25.862,27.0819,,610.229,8324.554,8809.51,,610.229,0.310671,0.00307416,0.307416,0.307638
620.077,22.015,26.924,,620.077,6734.089,7201.65,,620.077,0.326919,0.00373859,0.373859,0.36144
629.949,20.65,22.7999,,629.949,5317.543,5729.63,,629.949,0.388337,0.00397929,0.397929,0.376552
639.846,23.218,22.5472,,639.846,4218.878,4532.11,,639.846,0.550336,0.00497499,0.497499,0.425893
649.766,24.887,26.5858,,649.766,3271.211,3533.54,,649.766,0.760789,0.00752383,0.752383,0.596468
659.71,20.226,23.5733,,659.71,2492.87,2714.3,,659.71,0.811354,0.00868484,0.868484,0.802919
669.678,24.148,24.2464,,669.678,1873.849,2048.16,,669.678,1.28868,0.0118381,1.18381,0.999552
679.67,25.883,23.4412,,679.67,1407.015,1539.76,,679.67,1.83957,0.0152239,1.52239,1.30339
689.686,27.391,25.4138,,689.686,1055.543,1148.23,,689.686,2.59497,0.022133,2.2133,1.81516
699.726,25.249,25.4626,,699.726,793.442,867.434,,699.726,3.18221,0.029354,2.9354,2.55351
709.789,28.988,24.8296,,709.789,609.751,660.452,,709.789,4.75407,0.0375949,3.75949,3.12939
719.876,21.229,21.6752,,719.876,454.741,495.487,,719.876,4.66837,0.0437451,4.37451,4.03569
729.987,27.061,26.6623,,729.987,359.991,387.199,,729.987,7.51713,0.0688596,6.88596,5.42941
740.121,22.885,22.1911,,740.121,300.205,312.262,,740.121,7.62312,0.0710656,7.10656,7.00037
750.279,21.963,22.2964,,750.279,248.84,263.198,,750.279,8.82615,0.0847134,8.47134,7.90636
760.46,37.065,33.9792,,760.46,204.293,221.999,,760.46,18.1431,0.15306,15.306,11.1243
770.665,48.24,43.8175,,770.665,193.588,199.951,,770.665,24.9189,0.219141,21.9141,18.1663
780.894,57.412,53.1142,,780.894,180.465,184.937,,780.894,31.8134,0.287201,28.7201,26.1646
791.146,51.183,53.0855,,791.146,155.299,160.44,,791.146,32.9577,0.330874,33.0874,31.386
801.421,47.281,52.7337,,801.421,149.967,149.915,,801.421,31.5276,0.351758,35.1758,34.6496
811.72,47.09,47.5614,,811.72,146.042,147.85,,811.72,32.2441,0.321687,32.1687,33.3633
822.042,53.55,50.7044,,822.042,162.001,155.059,,822.042,33.0554,0.327001,32.7001,31.7959
832.387,62.064,59.825,,832.387,212.616,200.136,,832.387,29.1907,0.298922,29.8922,32.6461
842.755,94.688,78.546,,842.755,333.384,272.42,,842.755,28.4021,0.288327,28.8327,30.3177
853.147,198.575,166.789,,853.147,694.657,589.044,,853.147,28.5861,0.283152,28.3152,28.1183
863.562,299.208,268.428,,863.562,925.745,874.019,,863.562,32.3208,0.307119,30.7119,29.3945
874,441.698,395.648,,874,1123.132,1046.42,,874,39.3273,0.378096,37.8096,34.2263
884.461,632.904,580.668,,884.461,1538.543,1420.4,,884.461,41.1366,0.408805,40.8805,39.68
894.946,638.666,655.5,,894.946,1606.768,1632.49,,894.946,39.7485,0.401534,40.1534,40.6568
905.453,511.082,543.969,,905.453,1162.273,1298.52,,905.453,43.9726,0.418914,41.8914,40.5337
915.983,425.605,444.244,,915.983,779.347,876.084,,915.983,54.6105,0.50708,50.708,45.8126
926.537,363.675,383.357,,926.537,550.145,611.073,,926.537,66.1053,0.62735,62.735,57.0398
937.113,258.38,288.365,,937.113,374.39,419.664,,937.113,69.0136,0.687134,68.7134,66.4135
947.712,187.538,207.412,,947.712,287.625,308.57,,947.712,65.2023,0.672172,67.2172,68.1333
958.334,151.057,156.491,,958.334,235.305,247.702,,958.334,64.1963,0.63177,63.177,65.0937
968.979,140.484,140.981,,968.979,219.156,221.753,,968.979,64.1023,0.635758,63.5758,63.0586
979.646,143.544,140.37,,979.646,223.994,219.881,,979.646,64.0839,0.63839,63.839,63.2337
990.336,169.784,159.922,,990.336,255.455,246.471,,990.336,66.4634,0.648847,64.8847,63.3745
1001.049,191.658,183.316,,1001.049,300.356,287.985,,1001.049,63.8103,0.636548,63.6548,64.9162
1011.785,243.164,226.216,,1011.785,367.422,339.365,,1011.785,66.1811,0.666585,66.6585,65.2408
1022.543,323.213,301.582,,1022.543,499.288,463.801,,1022.543,64.7348,0.65024,65.024,65.3678
1033.324,338.076,339.941,,1033.324,578.316,561.291,,1033.324,58.4587,0.605641,60.5641,63.1738
1044.128,308.844,321.099,,1044.128,590.776,587.997,,1044.128,52.2777,0.546088,54.6088,57.3963
1054.954,252.972,272.535,,1054.954,594.94,597.752,,1054.954,42.5206,0.455934,45.5934,50.2679
1065.802,201.458,218.093,,1065.802,567.258,573.583,,1065.802,35.5144,0.38023,38.023,41.7722
1076.673,150.302,166.785,,1076.673,539.548,552.254,,1076.673,27.857,0.302007,30.2007,34.0561
1087.567,104.231,116.895,,1087.567,514.169,524.895,,1087.567,20.2717,0.222703,22.2703,26.3288
1098.461,76.062,80.1059,,1098.461,495.209,503.172,,1098.461,15.3596,0.159202,15.9202,18.4825
1109.207,50.25,56.0306,,1109.207,467.849,473.81,,1109.207,10.7406,0.118255,11.8255,14.0879
1119.954,38.612,41.0446,,1119.954,424.267,434.548,,1119.954,9.10087,0.0944535,9.44535,10.3008
1130.7,38.512,33.9118,,1130.7,393.187,403.106,,1130.7,9.79483,0.0841264,8.41264,7.964
1141.446,30.677,29.3181,,1141.446,346.154,357.45,,1141.446,8.86224,0.08202,8.202,8.49957
1152.192,28.56,27.6921,,1152.192,303.532,316.029,,1152.192,9.40922,0.087625,8.7625,8.76984
1162.938,16.708,20.2634,,1162.938,273.956,282.136,,1162.938,6.09879,0.0718214,7.18214,8.73538
1173.684,15.575,17.3758,,1173.684,239.977,249.836,,1173.684,6.49021,0.0695489,6.95489,6.76187
1184.43,19.982,20.3271,,1184.43,215.417,222.34,,1184.43,9.27596,0.0914236,9.14236,8.86786
1195.177,22.202,20.7713,,1195.177,194.106,196.649,,1195.177,11.4381,0.105626,10.5626,9.97145
1205.923,17.965,23.5096,,1205.923,193.602,190.628,,1205.923,9.27935,0.123327,12.3327,12.8253
1216.669,26.367,26.367,,1216.669,158.562,173.626,,1216.669,16.6288,0.151861,15.1861,13.1918
1227.415,16.411,18.2581,,1227.415,103.645,120.474,,1227.415,15.8339,0.151552,15.1552,13.9158
1238.161,5.92,9.25167,,1238.161,78.243,85.1732,,1238.161,7.56617,0.108622,10.8622,14.0726
1242.586,8.078,9.62872,,1242.586,64.806,76.3368,,1242.586,12.4649,0.126135,12.6135,