File: public_html/data/backup/makrolon-orange_red_326.csv
wavelength_nm,intensity,intensity_smoothed,,wavelength_nm2,intensity_i0,intensity_i0_smoothed,,wavelength_nm3,,transmission,transmission_perc,transmission_perc_smoothed
173.232,23.925,#N/A,,173.232,26.024,#N/A,,173.232,91.9344,#N/A,#N/A,#N/A
182.226,15.936,14.9614,,182.226,37.219,36.6837,,182.226,42.8168,0.407848,40.7848,#N/A
191.22,16.477,21.3578,,191.22,43.219,43.5829,,191.22,38.1244,0.49005,49.005,49.1497
200.214,16.381,18.3624,,200.214,38.487,42.1124,,200.214,42.5624,0.436034,43.6034,48.5967
209.208,17.558,18.0461,,209.208,40.21,41.34,,209.208,43.6658,0.43653,43.653,43.599
218.203,22.826,17.1488,,218.203,43.66,39.32,,218.203,52.2813,0.436134,43.6134,42.184
227.197,20.276,18.0667,,227.197,40.928,41.6867,,227.197,49.5407,0.433392,43.3392,44.4255
236.191,22.18,18.4059,,236.191,45.378,43.5585,,236.191,48.8783,0.422556,42.2556,41.1287
245.185,27.266,26.99,,245.185,68.191,61.595,,245.185,39.9847,0.438186,43.8186,45.6541
254.158,27.987,28.2641,,254.158,83.913,79.8665,,254.158,33.3524,0.353891,35.3891,38.4251
263.066,36.8,34.4007,,263.066,88.272,85.6838,,263.066,41.6893,0.401485,40.1485,36.3397
271.999,34.522,32.5555,,271.999,96.63,93.8624,,271.999,35.726,0.346842,34.6842,37.9635
280.958,30.061,28.3835,,280.958,90.533,89.5566,,280.958,33.2045,0.316934,31.6934,33.3054
289.943,30.237,31.2607,,289.943,90.255,90.6136,,289.943,33.5017,0.34499,34.499,35.2206
298.952,34.322,33.6915,,298.952,95.431,93.5602,,298.952,35.9653,0.360105,36.0105,34.0283
307.987,28.133,28.5883,,307.987,92.334,89.9978,,307.987,30.4687,0.317656,31.7656,34.0747
317.047,34.945,34.5022,,317.047,95.055,94.2753,,317.047,36.7629,0.365973,36.5973,34.7576
326.132,25.392,27.6909,,326.132,94.958,93.6745,,326.132,26.7402,0.295608,29.5608,33.582
335.243,29.022,27.4954,,335.243,101.496,98.891,,335.243,28.5942,0.278038,27.8038,29.3463
344.379,36.105,35.0242,,344.379,104.217,100.503,,344.379,34.6441,0.34849,34.849,31.4087
353.539,30.032,32.4199,,353.539,106.567,104.59,,353.539,28.1813,0.309971,30.9971,32.1036
362.725,35.563,36.6732,,362.725,115.754,112.854,,362.725,30.7229,0.324961,32.4961,30.3446
371.936,36.246,34.6519,,371.936,123.06,119.205,,371.936,29.4539,0.290692,29.0692,30.12
381.171,36.679,35.7604,,381.171,137.525,133.26,,381.171,26.6708,0.268351,26.8351,28.9532
390.432,32.653,32.4496,,390.432,150.717,144.106,,390.432,21.6651,0.225178,22.5178,24.4005
399.718,46.214,45.0416,,399.718,272.022,218.252,,399.718,16.9891,0.206374,20.6374,22.2122
409.028,50.397,47.646,,409.028,1208.244,808.398,,409.028,4.17109,0.0589388,5.89388,12.4079
418.364,72.455,66.0285,,418.364,6479.905,4361.01,,418.364,1.11815,0.0151406,1.51406,3.11899
427.724,71.593,74.3906,,427.724,23830.084,17724.6,,427.724,0.300431,0.00419703,0.419703,0.84602
437.108,63.371,68.4953,,437.108,56269.108,46051.4,,437.108,0.112621,0.00148737,0.148737,0.257073
446.518,44.349,53.929,,446.518,60380.834,61991.5,,446.518,0.0734488,0.000869942,0.0869942,0.106543
455.952,41.587,42.6268,,455.952,26403.844,35592,,455.952,0.157504,0.00119765,0.119765,0.08999
465.411,33.708,34.0662,,465.411,11596.916,15200.4,,465.411,0.290663,0.00224114,0.224114,0.162976
474.895,29.522,33.5056,,474.895,6015.105,7261.93,,474.895,0.490798,0.00461387,0.461387,0.347923
484.403,34.738,33.8994,,484.403,4613.299,4880.49,,484.403,0.752997,0.00694591,0.694591,0.574798
493.936,36.018,36.5657,,493.936,6134.021,5491.74,,493.936,0.587184,0.00665832,0.665832,0.730716
503.493,34.429,37.9543,,503.493,10106.778,8836.5,,503.493,0.340653,0.00429517,0.429517,0.540098
513.074,40.653,35.3058,,513.074,14446.963,13216.5,,513.074,0.281395,0.00267135,0.267135,0.327517
522.681,40.408,40.4001,,522.681,17402.064,16648.3,,522.681,0.232202,0.00242667,0.242667,0.258619
532.311,55,51.1966,,532.311,18380.58,18221.8,,532.311,0.299229,0.00280964,0.280964,0.257697
541.966,118.86,97.1321,,541.966,18090.567,18218.8,,541.966,0.657027,0.00533141,0.533141,0.382429
551.645,253.509,203.431,,551.645,17389.423,17628.1,,551.645,1.45783,0.0115402,1.15402,0.801702
561.348,630.633,491.03,,561.348,16250.673,16589.7,,561.348,3.88066,0.0295985,2.95985,1.90583
571.076,1702.05,1309.54,,571.076,14842.811,15280.2,,571.076,11.4672,0.0857017,8.57017,5.28615
580.828,3975.798,3229.2,,580.828,13316.289,13768.3,,580.828,29.8567,0.234539,23.4539,15.1362
590.604,6730.467,5961.36,,590.604,11676.05,12159.6,,590.604,57.6434,0.490259,49.0259,35.6715
600.404,8340.343,7980.39,,600.404,9996.849,10502.9,,600.404,83.4297,0.759829,75.9829,62.8365
610.229,8228.958,8339.01,,610.229,8324.554,8809.51,,610.229,98.8516,0.946591,94.6591,86.1368
620.077,7182.409,7516.82,,620.077,6734.089,7201.65,,620.077,106.657,1.04376,104.376,99.9651
629.949,5853.623,6239.27,,629.949,5317.543,5729.63,,629.949,110.081,1.08895,108.895,106.798
639.846,4675.756,5021.57,,639.846,4218.878,4532.11,,639.846,110.829,1.108,110.8,110.142
649.766,3629.849,3926.25,,649.766,3271.211,3533.54,,649.766,110.963,1.11114,111.114,110.883
659.71,2759.348,2999.44,,659.71,2492.87,2714.3,,659.71,110.69,1.10505,110.505,110.743
669.678,2064.73,2255.78,,669.678,1873.849,2048.16,,669.678,110.187,1.10137,110.137,110.477
679.67,1522.763,1674.97,,679.67,1407.015,1539.76,,679.67,108.226,1.08781,108.781,109.546
689.686,1117.298,1226.09,,689.686,1055.543,1148.23,,689.686,105.851,1.06781,106.781,107.992
699.726,827.832,907.159,,699.726,793.442,867.434,,699.726,104.334,1.0458,104.58,105.553
709.789,607.394,666.046,,709.789,609.751,660.452,,709.789,99.6134,1.00847,100.847,103.085
719.876,431.639,480.55,,719.876,454.741,495.487,,719.876,94.9197,0.969853,96.9853,99.1842
729.987,321.778,352.025,,729.987,359.991,387.199,,729.987,89.385,0.909158,90.9158,93.7628
740.121,253.187,271.377,,740.121,300.205,312.262,,740.121,84.338,0.869069,86.9069,89.1285
750.279,197.453,211.078,,750.279,248.84,263.198,,750.279,79.3494,0.801974,80.1974,83.7079
760.46,138.933,158.272,,760.46,204.293,221.999,,760.46,68.0067,0.712938,71.2938,76.3947
770.665,126.879,130.477,,770.665,193.588,199.951,,770.665,65.5407,0.652541,65.2541,67.14
780.894,96.59,105.462,,780.894,180.465,184.937,,780.894,53.5228,0.570258,57.0258,62.2482
791.146,87.858,88.5158,,791.146,155.299,160.44,,791.146,56.5734,0.551706,55.1706,55.4333
801.421,77.905,79.1809,,801.421,149.967,149.915,,801.421,51.9481,0.528173,52.8173,53.9057
811.72,68.104,71.1012,,811.72,146.042,147.85,,811.72,46.6332,0.480902,48.0902,49.4273
822.042,65.522,62.6624,,822.042,162.001,155.059,,822.042,40.4454,0.404119,40.4119,44.0432
832.387,53.729,58.9782,,832.387,212.616,200.136,,832.387,25.2704,0.294691,29.4691,35.5224
842.755,56.881,51.3213,,842.755,333.384,272.42,,842.755,17.0617,0.188391,18.8391,23.2821
853.147,58.654,58.2877,,853.147,694.657,589.044,,853.147,8.44359,0.0989532,9.89532,14.3671
863.562,41.324,48.8837,,863.562,925.745,874.019,,863.562,4.46386,0.0559298,5.59298,7.40338
874,33.092,36.0237,,874,1123.132,1046.42,,874,2.9464,0.0344256,3.44256,4.3911
884.461,34.337,34.2006,,884.461,1538.543,1420.4,,884.461,2.23179,0.0240781,2.40781,2.84153
894.946,38.178,35.2493,,894.946,1606.768,1632.49,,894.946,2.37607,0.0215924,2.15924,2.13758
905.453,33.08,32.1705,,905.453,1162.273,1298.52,,905.453,2.84615,0.0247747,2.47747,2.3322
915.983,36.215,38.4626,,915.983,779.347,876.084,,915.983,4.64684,0.0439029,4.39029,3.55393
926.537,38.916,34.4964,,926.537,550.145,611.073,,926.537,7.07377,0.0564523,5.64523,4.94246
937.113,32.335,34.7216,,937.113,374.39,419.664,,937.113,8.63672,0.0827368,8.27368,7.13036
947.712,23.744,29.0619,,947.712,287.625,308.57,,947.712,8.25519,0.0941827,9.41827,9.13209
958.334,36.87,34.724,,958.334,235.305,247.702,,958.334,15.669,0.140185,14.0185,11.5357
968.979,38.62,36.0877,,968.979,219.156,221.753,,968.979,17.6222,0.162739,16.2739,15.1755
979.646,36.903,34.5955,,979.646,223.994,219.881,,979.646,16.475,0.157337,15.7337,15.8784
990.336,31.262,34.8532,,990.336,255.455,246.471,,990.336,12.2378,0.141409,14.1409,15.4133
1001.049,40.514,38.1634,,1001.049,300.356,287.985,,1001.049,13.4887,0.132519,13.2519,12.9421
1011.785,38.386,36.1423,,1011.785,367.422,339.365,,1011.785,10.4474,0.1065,10.65,12.0631
1022.543,43.419,40.7313,,1022.543,499.288,463.801,,1022.543,8.69618,0.0878205,8.78205,9.73272
1033.324,34.887,37.6925,,1033.324,578.316,561.291,,1033.324,6.03252,0.0671532,6.71532,7.92318
1044.128,39.785,39.0076,,1044.128,590.776,587.997,,1044.128,6.73436,0.0663398,6.63398,6.18427
1054.954,26.839,33.1508,,1054.954,594.94,597.752,,1054.954,4.51121,0.0554592,5.54592,6.33221
1065.802,29.593,31.138,,1065.802,567.258,573.583,,1065.802,5.21685,0.0542868,5.42868,5.51176
1076.673,35.224,31.7241,,1076.673,539.548,552.254,,1076.673,6.52843,0.0574447,5.74447,5.70771
1087.567,25.367,25.8051,,1087.567,514.169,524.895,,1087.567,4.93359,0.0491624,4.91624,5.53993
1098.461,24.382,27.9736,,1098.461,495.209,503.172,,1098.461,4.92358,0.0555946,5.55946,5.18713
1109.207,22.266,22.1619,,1109.207,467.849,473.81,,1109.207,4.75923,0.0467737,4.67737,4.99731
1119.954,26.653,26.0602,,1119.954,424.267,434.548,,1119.954,6.28213,0.059971,5.9971,5.5282
1130.7,32.449,32.0237,,1130.7,393.187,403.106,,1130.7,8.25282,0.0794424,7.94424,6.84016
1141.446,43.38,37.6769,,1141.446,346.154,357.45,,1141.446,12.532,0.105405,10.5405,9.00885
1152.192,58.082,52.2098,,1152.192,303.532,316.029,,1152.192,19.1354,0.165206,16.5206,13.4054
1162.938,71.828,68.51,,1162.938,273.956,282.136,,1162.938,26.2188,0.242826,24.2826,20.2536
1173.684,86.35,84.2019,,1173.684,239.977,249.836,,1173.684,35.9826,0.337028,33.7028,28.078
1184.43,97.381,93.79,,1184.43,215.417,222.34,,1184.43,45.2058,0.421833,42.1833,38.0539
1195.177,94.658,93.9219,,1195.177,194.106,196.649,,1195.177,48.7661,0.477613,47.7613,45.1545
1205.923,91.106,94.3077,,1205.923,193.602,190.628,,1205.923,47.0584,0.494721,49.4721,49.122
1216.669,80.563,82.942,,1216.669,158.562,173.626,,1216.669,50.8085,0.477706,47.7706,47.6546
1227.415,64.781,70.8401,,1227.415,103.645,120.474,,1227.415,62.5028,0.58801,58.801,52.2331
1238.161,48.337,53.0732,,1238.161,78.243,85.1732,,1238.161,61.7781,0.623121,62.3121,61.96
1242.586,38.054,48.4378,,1242.586,64.806,76.3368,,1242.586,58.7199,0.634528,63.4528,