File: public_html/data/backup/makrolon-red_324.csv
wavelength_nm,intensity,intensity_smoothed,,wavelength_nm2,intensity_i0,intensity_i0_smoothed,,wavelength_nm3,,transmission,transmission_perc,transmission_perc_smoothed
173.232,15.215,#N/A,,173.232,26.024,#N/A,,173.232,58.4653,#N/A,#N/A,#N/A
181.961,20.347,17.9994,,181.961,36.764,36.6747,,181.961,55.3449,0.490785,49.0785,#N/A
190.691,26.615,21.2279,,190.691,42.855,43.6302,,190.691,62.1048,0.486542,48.6542,47.1518
199.421,17.519,21.5097,,199.421,39.488,43.3364,,199.421,44.3654,0.496342,49.6342,49.8685
208.15,20.15,20.8924,,208.15,41.483,41.388,,208.15,48.5741,0.504795,50.4795,47.7513
216.88,18.962,20.8219,,216.88,40.752,37.7489,,216.88,46.5302,0.55159,55.159,48.2596
225.609,14.411,17.0305,,225.609,40.838,42.2694,,225.609,35.2882,0.402903,40.2903,46.8857
234.339,22.86,21.7136,,234.339,42.197,41.7141,,234.339,54.1745,0.520533,52.0533,45.5105
243.069,25.672,24.567,,243.069,61.92,57.6131,,243.069,41.4599,0.426414,42.6414,46.9337
251.798,30.484,30.918,,251.798,81.096,75.645,,251.798,37.59,0.408725,40.8725,42.5344
260.443,31.842,38.6159,,260.443,84.273,85.8128,,260.443,37.7843,0.450002,45.0002,45.2674
269.106,32.381,32.9058,,269.106,91.995,89.8291,,269.106,35.1987,0.366315,36.6315,38.418
277.794,35.374,37.2984,,277.794,86.172,89.0849,,277.794,41.0505,0.418684,41.8684,38.5317
286.505,42.731,38.9701,,286.505,92.075,91.6835,,286.505,46.4089,0.42505,42.505,40.5667
295.239,33.269,37.2695,,295.239,91.07,90.4104,,295.239,36.5312,0.412227,41.2227,44.4123
303.998,35.807,36.5291,,303.998,87.246,90.1977,,303.998,41.0414,0.40499,40.499,39.6082
312.78,33.163,35.9299,,312.78,91.149,90.927,,312.78,36.3833,0.395151,39.5151,41.043
321.587,38.792,38.5024,,321.587,90.506,94.8627,,321.587,42.8612,0.405875,40.5875,37.1644
330.417,45.057,41.6482,,330.417,99.682,99.6722,,330.417,45.2007,0.417852,41.7852,42.3891
339.27,41.321,38.9482,,339.27,102.857,102.251,,339.27,40.1733,0.380908,38.0908,37.1995
348.148,41.601,40.8504,,348.148,98.432,100.578,,348.148,42.2637,0.406158,40.6158,38.694
357.048,36.101,42.0082,,357.048,110.673,111.077,,357.048,32.6195,0.37819,37.819,40.0333
365.973,40.53,41.3363,,365.973,117.974,113.887,,365.973,34.355,0.36296,36.296,35.4983
374.921,46.945,45.573,,374.921,124.917,123.966,,374.921,37.581,0.367625,36.7625,36.3587
383.893,46.646,46.038,,383.893,144.53,139.532,,383.893,32.2743,0.329945,32.9945,34.4393
392.888,54.38,45.4466,,392.888,159.146,150.069,,392.888,34.1699,0.302837,30.2837,30.9236
401.906,117.117,86.4192,,401.906,365.612,272.868,,401.906,32.0331,0.316707,31.6707,31.0506
410.948,525.848,352.572,,410.948,1718.765,1137.94,,410.948,30.5945,0.309835,30.9835,31.443
420.014,2231.831,1587.9,,420.014,8451.974,5767.44,,420.014,26.406,0.275322,27.5322,29.5506
429.102,5631.563,4555.7,,429.102,27693.477,20911.9,,429.102,20.3353,0.217852,21.7852,24.8169
438.214,9075.327,8106.73,,438.214,59961.765,50102.5,,438.214,15.1352,0.161803,16.1803,18.9214
447.35,6628.456,8011.4,,447.35,58648.948,61401.1,,447.35,11.3019,0.130477,13.0477,14.8162
456.508,1893.501,2953.98,,456.508,25021.545,33775.7,,456.508,7.56748,0.0874587,8.74587,10.7315
465.69,642.297,939.312,,465.69,11319.434,14840,,465.69,5.67429,0.0632958,6.32958,7.49821
474.895,286.467,364.293,,474.895,6015.105,7261.93,,474.895,4.76246,0.0501648,5.01648,5.6287
484.123,206.948,224.209,,484.123,4621.49,4909.27,,484.123,4.47795,0.0456706,4.56706,4.73192
493.374,238.476,222.705,,493.374,5966.336,5370.01,,493.374,3.99703,0.0414721,4.14721,4.39044
502.649,337.347,307.042,,502.649,9690.467,8462.61,,502.649,3.48123,0.0362822,3.62822,3.9011
511.946,490.513,437.111,,511.946,13989.8,12712.6,,511.946,3.50622,0.034384,3.4384,3.4814
521.266,801.751,694.004,,521.266,17073.244,16252.6,,521.266,4.69595,0.0427011,4.27011,3.76738
530.61,1256.726,1111.28,,530.61,18349.066,18088.8,,530.61,6.84899,0.0614347,6.14347,5.10507
539.976,1694.906,1563.27,,539.976,18207.698,18295.5,,539.976,9.30873,0.0854453,8.54453,7.29667
549.365,2128.309,1985.33,,549.365,17602.812,17792,,549.365,12.0907,0.111586,11.1586,9.76719
558.777,2893.456,2629.58,,558.777,16563.829,16897,,558.777,17.4685,0.155624,15.5624,13.0813
568.212,4312.362,3839.45,,568.212,15289.892,15695.3,,568.212,28.204,0.244625,24.4625,19.4566
577.67,6229.345,5633.91,,577.67,13819.921,14244.9,,577.67,45.0751,0.395504,39.5504,31.3293
587.151,8056.43,7522.64,,587.151,12274.337,12748.5,,587.151,65.6364,0.590081,59.0081,48.7343
596.654,9139.817,8878.01,,596.654,10648.129,11148.2,,596.654,85.835,0.796361,79.6361,69.1637
606.18,9044.757,9150.17,,606.18,8998.253,9504.26,,606.18,100.517,0.962744,96.2744,88.2374
615.729,8020.162,8377.21,,615.729,7428.717,7899.72,,615.729,107.962,1.06044,106.044,101.572
625.3,6650.34,7048.09,,625.3,5982.617,6408.95,,625.3,111.161,1.09972,109.972,108.219
634.895,5347.276,5730.7,,634.895,4752.181,5094.9,,634.895,112.523,1.12479,112.479,111.492
644.511,4236.335,4565.35,,644.511,3747.632,4044.47,,644.511,113.04,1.12879,112.879,112.733
654.15,3301.811,3577.33,,654.15,2908.335,3155.05,,654.15,113.529,1.13385,113.385,113.235
663.812,2528.864,2763.26,,663.812,2218.324,2414.55,,663.812,113.999,1.14442,114.442,113.731
673.496,1914.358,2089.94,,673.496,1690.913,1837.31,,673.496,113.214,1.1375,113.75,114.117
683.203,1432.807,1569.65,,683.203,1270.438,1392.78,,683.203,112.781,1.12699,112.699,113.317
692.932,1060.072,1161.24,,692.932,962.917,1048.75,,692.932,110.09,1.10726,110.726,112.082
702.683,790.298,873.319,,702.683,735.844,798.529,,702.683,107.4,1.09366,109.366,109.92
712.457,582.534,643.592,,712.457,560.959,614.698,,712.457,103.846,1.047,104.7,107.002
722.253,425.528,467.541,,722.253,433.589,465.805,,722.253,98.1409,1.00373,100.373,102.859
732.071,328.759,355.277,,732.071,342.863,368.104,,732.071,95.8864,0.965153,96.5153,97.8709
741.912,259.519,277.876,,741.912,291.744,304.649,,741.912,88.9544,0.91212,91.212,94.3334
751.775,201.219,217.107,,751.775,245.16,256.03,,751.775,82.0766,0.847974,84.7974,87.8101
761.66,142.757,159.934,,761.66,201.389,215.524,,761.66,70.8862,0.742071,74.2071,79.6756
771.567,137.453,142.662,,771.567,195.038,198.428,,771.567,70.475,0.718959,71.8959,72.3577
781.496,110.961,116.885,,781.496,182.302,184.116,,781.496,60.8666,0.634846,63.4846,68.1937
791.448,100.913,103.621,,791.448,152.915,159.926,,791.448,65.9929,0.647931,64.7931,62.6508
801.421,79.961,86.482,,801.421,149.967,149.915,,801.421,53.3191,0.576874,57.6874,61.39
811.416,81.984,81.6228,,811.416,146.293,148.023,,811.416,56.041,0.55142,55.142,55.1754
821.434,80.529,78.4294,,821.434,160.59,153.76,,821.434,50.1457,0.510076,51.0076,52.1606
831.473,96.704,89.4736,,831.473,212.839,194.955,,831.473,45.4353,0.458944,45.8944,48.2955
841.534,109.444,100.972,,841.534,297.21,252.039,,841.534,36.8238,0.400619,40.0619,43.6481
851.617,195.946,173.188,,851.617,642.972,535.673,,851.617,30.475,0.323309,32.3309,35.2628
861.722,221.526,220.593,,861.722,901.718,838.777,,861.722,24.5671,0.262994,26.2994,29.3352
871.849,219.148,219.648,,871.849,1056.668,1000.87,,871.849,20.7395,0.219457,21.9457,24.037
881.998,244.286,237.587,,881.998,1448.726,1322.97,,881.998,16.8621,0.179587,17.9587,20.0288
892.168,234.358,240.558,,892.168,1654.916,1627.2,,892.168,14.1613,0.147836,14.7836,16.2792
902.36,163.275,189.572,,902.36,1309.575,1428.54,,902.36,12.4678,0.132703,13.2703,14.0247
912.574,109.59,125.756,,912.574,875.017,996.597,,912.574,12.5243,0.126186,12.6186,12.6654
922.809,79.459,87.5406,,922.809,619.64,688.405,,922.809,12.8234,0.127164,12.7164,12.5071
933.066,60.5,64.5027,,933.066,425.8,483.781,,933.066,14.2085,0.13333,13.333,12.6654
943.345,53.804,52.3849,,943.345,316.861,346.834,,943.345,16.9803,0.151037,15.1037,14.0568
953.645,42.005,45.6229,,953.645,253.004,268.664,,953.645,16.6025,0.169814,16.9814,16.4237
963.966,42.103,45.1424,,963.966,221.773,231.494,,963.966,18.9847,0.195005,19.5005,18.3756
974.31,41.55,43.1709,,974.31,216.895,219.711,,974.31,19.1567,0.19649,19.649,19.6318
984.674,41.528,44.5145,,984.674,236.549,229.468,,984.674,17.5558,0.19399,19.399,19.4242
995.06,55.125,51.4201,,995.06,275.555,262.079,,995.06,20.0051,0.196201,19.6201,19.106
1005.467,46.613,47.5067,,1005.467,307,300.576,,1005.467,15.1834,0.158052,15.8052,18.1626
1015.896,54.354,51.7844,,1015.896,419.611,382.98,,1015.896,12.9534,0.135214,13.5214,14.7189
1026.346,58.255,56.4135,,1026.346,534.477,503.672,,1026.346,10.8994,0.112004,11.2004,12.5132
1036.817,62.949,60.7753,,1036.817,588.232,576.536,,1036.817,10.7014,0.105415,10.5415,10.8214
1047.31,73.708,71.1486,,1047.31,593.602,592.642,,1047.31,12.4171,0.120053,12.0053,11.2118
1057.823,76.437,71.2974,,1057.823,584.222,594.176,,1057.823,13.0836,0.119994,11.9994,11.8426
1068.358,70.224,75.5703,,1068.358,562.907,568.823,,1068.358,12.4752,0.132854,13.2854,12.7741
1078.914,78.068,76.8965,,1078.914,535.563,543.523,,1078.914,14.5768,0.141478,14.1478,13.3797
1089.491,73.691,74.8943,,1089.491,513.644,519.697,,1089.491,14.3467,0.144111,14.4111,14.4257
1100.042,83.909,80.7766,,1100.042,490.055,498.834,,1100.042,17.1224,0.161931,16.1931,15.1315
1110.472,86.264,80.066,,1110.472,464.157,470.658,,1110.472,18.5851,0.170115,17.0115,16.2305
1120.902,86.481,84.34,,1120.902,422.403,431.806,,1120.902,20.4736,0.195319,19.5319,18.3798
1131.332,87.647,90.1191,,1131.332,388.972,400.892,,1131.332,22.533,0.224796,22.4796,20.9749
1141.762,98.489,93.8274,,1141.762,345.773,356.321,,1141.762,28.4837,0.263323,26.3323,23.8329
1152.192,114.096,108.079,,1152.192,303.532,316.029,,1152.192,37.5894,0.34199,34.199,29.929
1162.622,119.743,117.852,,1162.622,273.885,283.053,,1162.622,43.7202,0.416362,41.6362,37.6978
1173.052,120.888,119.068,,1173.052,243.292,251.711,,1173.052,49.6884,0.473036,47.3036,44.4839
1183.482,129.718,126.657,,1183.482,216.211,224.618,,1183.482,59.996,0.563878,56.3878,51.8894
1193.912,118.246,122.066,,1193.912,193.288,198.451,,1193.912,61.1761,0.615094,61.5094,59.2579
1204.342,102.032,107.588,,1204.342,190.807,189.376,,1204.342,53.4739,0.568117,56.8117,60.4374
1214.773,95.279,100.132,,1214.773,172.877,180.133,,1214.773,55.1138,0.555878,55.5878,55.2872
1225.203,78.558,80.5932,,1225.203,115.519,133.854,,1225.203,68.0044,0.602098,60.2098,55.898
1235.633,50.811,58.9314,,1235.633,83.394,91.0368,,1235.633,60.9288,0.647336,64.7336,65.1262
1242.586,48.132,49.4229,,1242.586,64.806,76.3368,,1242.586,74.2709,0.647432,64.7432,