File: public_html/data/backup/makrolon-bright_green_634.csv
wavelength_nm,intensity,intensity_smoothed,,wavelength_nm2,intensity_i0,intensity_i0_smoothed,,wavelength_nm3,,transmission,transmission_perc,transmission_perc_smoothed
173.232,28.506,#N/A,,173.232,26.024,#N/A,,173.232,109.537,#N/A,#N/A,#N/A
182.226,37.758,36.509,,182.226,37.219,36.6837,,182.226,101.448,0.99524,99.524,#N/A
191.22,39.116,39.9005,,191.22,43.219,43.5829,,191.22,90.5065,0.915508,91.5508,93.2965
200.214,42.2,37.761,,200.214,38.487,42.1124,,200.214,109.647,0.896672,89.6672,87.1764
209.208,38.285,37.7537,,209.208,40.21,41.34,,209.208,95.2126,0.913248,91.3248,91.9778
218.203,45.824,39.3702,,218.203,43.66,39.32,,218.203,104.956,1.00128,100.128,99.094
227.197,39.181,39.5688,,227.197,40.928,41.6867,,227.197,95.7315,0.949194,94.9194,99.2345
236.191,40.447,40.9209,,236.191,45.378,43.5585,,236.191,89.1335,0.939445,93.9445,95.0661
245.185,56.258,53.326,,245.185,68.191,61.595,,245.185,82.5006,0.865752,86.5752,87.9897
254.158,68.614,68.1442,,254.158,83.913,79.8665,,254.158,81.768,0.853225,85.3225,87.7426
263.066,76.243,70.852,,263.066,88.272,85.6838,,263.066,86.3728,0.826901,82.6901,83.2801
271.999,66.69,70.8913,,271.999,96.63,93.8624,,271.999,69.0158,0.755268,75.5268,81.7169
280.958,77.773,74.9253,,280.958,90.533,89.5566,,280.958,85.9057,0.836625,83.6625,80.4277
289.943,66.946,71.6898,,289.943,90.255,90.6136,,289.943,74.1743,0.791159,79.1159,80.8865
298.952,78.756,75.6551,,298.952,95.431,93.5602,,298.952,82.5266,0.808624,80.8624,81.4215
307.987,76.565,74.032,,307.987,92.334,89.9978,,307.987,82.9218,0.822598,82.2598,83.0683
317.047,81.102,79.6286,,317.047,95.055,94.2753,,317.047,85.3211,0.844639,84.4639,83.0652
326.132,78.638,76.2351,,326.132,94.958,93.6745,,326.132,82.8135,0.81383,81.383,82.7565
335.243,79.356,79.7065,,335.243,101.496,98.891,,335.243,78.1863,0.806004,80.6004,79.0629
344.379,80.164,78.5878,,344.379,104.217,100.503,,344.379,76.9203,0.781947,78.1947,77.0705
353.539,86.73,83.9269,,353.539,106.567,104.59,,353.539,81.3854,0.802435,80.2435,79.1098
362.725,89.028,83.3618,,362.725,115.754,112.854,,362.725,76.9114,0.738666,73.8666,76.0023
371.936,91.758,89.4351,,371.936,123.06,119.205,,371.936,74.5636,0.750263,75.0263,75.2816
381.171,98.172,96.0838,,381.171,137.525,133.26,,381.171,71.3848,0.721025,72.1025,74.7585
390.432,110.082,105.463,,390.432,150.717,144.106,,390.432,73.0389,0.731843,73.1843,71.4702
399.718,208.236,160.203,,399.718,272.022,218.252,,399.718,76.5512,0.734026,73.4026,72.3312
409.028,1000.746,654.677,,409.028,1208.244,808.398,,409.028,82.8265,0.809845,80.9845,77.6704
418.364,5631.33,3768.09,,418.364,6479.905,4361.01,,418.364,86.9045,0.864041,86.4041,84.176
427.724,21453.952,15829.6,,427.724,23830.084,17724.6,,427.724,90.0289,0.893088,89.3088,87.7348
437.108,53122.518,42933.2,,437.108,56269.108,46051.4,,437.108,94.408,0.932288,93.2288,91.1661
446.518,59263.681,61023.2,,446.518,60380.834,61991.5,,446.518,98.1498,0.984379,98.4379,96.3156
455.952,25617.139,34441.5,,455.952,26403.844,35592,,455.952,97.0205,0.967675,96.7675,97.3052
465.411,11363.465,14870.2,,465.411,11596.916,15200.4,,465.411,97.987,0.978278,97.8278,97.3526
474.895,5915.077,7130.62,,474.895,6015.105,7261.93,,474.895,98.3371,0.981918,98.1918,98.0191
484.403,4501.616,4776.84,,484.403,4613.299,4880.49,,484.403,97.5791,0.978763,97.8763,98.1049
493.936,5908.654,5308.62,,493.936,6134.021,5491.74,,493.936,96.3259,0.966656,96.6656,97.2492
503.493,9480.745,8355.03,,503.493,10106.778,8836.5,,503.493,93.8058,0.945513,94.5513,95.6435
513.074,13179.893,12146.6,,513.074,14446.963,13216.5,,513.074,91.2295,0.91905,91.905,93.278
522.681,15090.204,14677.3,,522.681,17402.064,16648.3,,522.681,86.715,0.881606,88.1606,90.2565
532.311,14783.537,14997.3,,532.311,18380.58,18221.8,,532.311,80.4302,0.823043,82.3043,85.3505
541.966,13513.861,13879.9,,541.966,18090.567,18218.8,,541.966,74.7011,0.761843,76.1843,79.1514
551.645,12398.861,12725.5,,551.645,17389.423,17628.1,,551.645,71.3012,0.721888,72.1888,74.0266
561.348,10887.72,11369.5,,561.348,16250.673,16589.7,,561.348,66.9986,0.685331,68.5331,70.5394
571.076,8756.04,9394.2,,571.076,14842.811,15280.2,,571.076,58.9918,0.614795,61.4795,65.2758
580.828,6881.17,7377.22,,580.828,13316.289,13768.3,,580.828,51.6748,0.535813,53.5813,57.415
590.604,5989.799,6198.24,,590.604,11676.05,12159.6,,590.604,51.2999,0.50974,50.974,51.6847
600.404,5482.851,5642.93,,600.404,9996.849,10502.9,,600.404,54.8458,0.537275,53.7275,52.1344
610.229,4617.66,4910.66,,610.229,8324.554,8809.51,,610.229,55.4704,0.557427,55.7427,55.052
620.077,3459.618,3799.88,,620.077,6734.089,7201.65,,620.077,51.3747,0.52764,52.764,54.5221
629.949,2549.767,2788.9,,629.949,5317.543,5729.63,,629.949,47.9501,0.486751,48.6751,50.5247
639.846,2242.733,2303.82,,639.846,4218.878,4532.11,,639.846,53.1595,0.508332,50.8332,48.979
649.766,2210.729,2213.37,,649.766,3271.211,3533.54,,649.766,67.5814,0.626387,62.6387,56.0503
659.71,2118.552,2154.76,,659.71,2492.87,2714.3,,659.71,84.9845,0.793855,79.3855,70.8076
669.678,1864.36,1950.49,,669.678,1873.849,2048.16,,669.678,99.4936,0.952312,95.2312,87.6695
679.67,1514.032,1623.42,,679.67,1407.015,1539.76,,679.67,107.606,1.05433,105.433,100.761
689.686,1169.344,1267.24,,689.686,1055.543,1148.23,,689.686,110.781,1.10364,110.364,108.182
699.726,885.188,967.697,,699.726,793.442,867.434,,699.726,111.563,1.11559,111.559,111.205
709.789,667.95,736.473,,709.789,609.751,660.452,,709.789,109.545,1.1151,111.51,111.666
719.876,501.691,546.814,,719.876,454.741,495.487,,719.876,110.325,1.10359,110.359,110.897
729.987,383.947,415.477,,729.987,359.991,387.199,,729.987,106.655,1.07303,107.303,108.87
740.121,303.42,325.45,,740.121,300.205,312.262,,740.121,101.071,1.04223,104.223,106.174
750.279,254.508,267.865,,750.279,248.84,263.198,,750.279,102.278,1.01773,101.773,102.933
760.46,188.669,213.344,,760.46,204.293,221.999,,760.46,92.3522,0.961013,96.1013,98.9745
770.665,178.368,184.423,,770.665,193.588,199.951,,770.665,92.1379,0.922337,92.2337,92.714
780.894,157.787,162.664,,780.894,180.465,184.937,,780.894,87.4336,0.879563,87.9563,90.2385
791.146,142.659,144.938,,791.146,155.299,160.44,,791.146,91.8609,0.903379,90.3379,89.3362
801.421,119.223,124.927,,801.421,149.967,149.915,,801.421,79.4995,0.833322,83.3322,86.692
811.72,122.388,122.839,,811.72,146.042,147.85,,811.72,83.8033,0.830839,83.0839,82.2409
822.042,136.86,128.78,,822.042,162.001,155.059,,822.042,84.481,0.830519,83.0519,82.4041
832.387,191.571,170.788,,832.387,212.616,200.136,,832.387,90.1019,0.853359,85.3359,84.1649
842.755,312.802,250.902,,842.755,333.384,272.42,,842.755,93.8263,0.921014,92.1014,89.1362
853.147,664.062,561.821,,853.147,694.657,589.044,,853.147,95.5957,0.953786,95.3786,94.0481
863.562,937.376,874.68,,863.562,925.745,874.019,,863.562,101.256,1.00076,100.076,97.7104
874,1154.653,1072.56,,874,1123.132,1046.42,,874,102.807,1.02498,102.498,101.273
884.461,1620.081,1488.46,,884.461,1538.543,1420.4,,884.461,105.3,1.04792,104.792,103.769
894.946,1702.444,1736.03,,894.946,1606.768,1632.49,,894.946,105.955,1.06343,106.343,105.797
905.453,1240.842,1386.27,,905.453,1162.273,1298.52,,905.453,106.76,1.06758,106.758,106.474
915.983,824.698,930.441,,915.983,779.347,876.084,,915.983,105.819,1.06205,106.205,106.385
926.537,571.175,647.108,,926.537,550.145,611.073,,926.537,103.823,1.05897,105.897,106.084
937.113,385.367,433.067,,937.113,374.39,419.664,,937.113,102.932,1.03194,103.194,104.525
947.712,287.092,311.471,,947.712,287.625,308.57,,947.712,99.8147,1.0094,100.94,101.793
958.334,230.621,244.293,,958.334,235.305,247.702,,958.334,98.0094,0.986237,98.6237,99.6943
968.979,202.315,210.813,,968.979,219.156,221.753,,968.979,92.3155,0.950668,95.0668,96.6805
979.646,219.264,212.818,,979.646,223.994,219.881,,979.646,97.8883,0.967878,96.7878,95.1372
990.336,248.466,240.332,,990.336,255.455,246.471,,990.336,97.2641,0.975092,97.5092,97.1512
1001.049,285.011,271.455,,1001.049,300.356,287.985,,1001.049,94.8911,0.942599,94.2599,95.7367
1011.785,356.805,330.009,,1011.785,367.422,339.365,,1011.785,97.1104,0.972428,97.2428,96.3104
1022.543,479.027,443.626,,1022.543,499.288,463.801,,1022.543,95.942,0.956501,95.6501,96.2404
1033.324,543.948,534.256,,1033.324,578.316,561.291,,1033.324,94.0572,0.951835,95.1835,95.8893
1044.128,553.019,550.865,,1044.128,590.776,587.997,,1044.128,93.6089,0.93685,93.685,94.2786
1054.954,520.601,530.434,,1054.954,594.94,597.752,,1054.954,87.5048,0.887382,88.7382,91.5375
1065.802,479.508,493.83,,1065.802,567.258,573.583,,1065.802,84.5308,0.860956,86.0956,87.5471
1076.673,434.282,449.934,,1076.673,539.548,552.254,,1076.673,80.49,0.814723,81.4723,83.5081
1087.567,403.828,416.163,,1087.567,514.169,524.895,,1087.567,78.5399,0.792851,79.2851,80.541
1098.461,376.778,383.051,,1098.461,495.209,503.172,,1098.461,76.0846,0.761272,76.1272,77.6436
1109.207,338.766,350.17,,1109.207,467.849,473.81,,1109.207,72.4093,0.739052,73.9052,75.4022
1119.954,318.241,317.736,,1119.954,424.267,434.548,,1119.954,75.0096,0.731189,73.1189,72.9239
1130.7,277.201,283.991,,1130.7,393.187,403.106,,1130.7,70.5011,0.704509,70.4509,72.0892
1141.446,232.824,244.147,,1141.446,346.154,357.45,,1141.446,67.2602,0.683024,68.3024,69.473
1152.192,186.02,198.994,,1152.192,303.532,316.029,,1152.192,61.2851,0.629668,62.9668,64.7462
1162.938,149.335,161.339,,1162.938,273.956,282.136,,1162.938,54.5106,0.571849,57.1849,59.8018
1173.684,137.591,141.871,,1173.684,239.977,249.836,,1173.684,57.3351,0.567856,56.7856,56.0428
1184.43,121.344,124.591,,1184.43,215.417,222.34,,1184.43,56.3298,0.560362,56.0362,55.6222
1195.177,112.879,110.573,,1195.177,194.106,196.649,,1195.177,58.1533,0.562286,56.2286,56.2625
1205.923,126.036,122.061,,1205.923,193.602,190.628,,1205.923,65.1006,0.640308,64.0308,60.5158
1216.669,107.932,117.103,,1216.669,158.562,173.626,,1216.669,68.0693,0.674458,67.4458,65.7131
1227.415,69.057,79.8675,,1227.415,103.645,120.474,,1227.415,66.6284,0.662942,66.2942,66.3718
1238.161,48.906,52.7127,,1238.161,78.243,85.1732,,1238.161,62.5053,0.618888,61.8888,63.8729
1242.586,39.711,45.2066,,1242.586,64.806,76.3368,,1242.586,61.2767,0.592199,59.2199,