File: public_html/data/backup/makrolon-flieder_blue_539.csv
wavelength_nm,intensity,intensity_smoothed,,wavelength_nm2,intensity_i0,intensity_i0_smoothed,,wavelength_nm3,,transmission,transmission_perc,transmission_perc_smoothed
173.232,24.191,#N/A,,173.232,26.024,#N/A,,173.232,92.9565,#N/A,#N/A,#N/A
182.226,33.31,32.7924,,182.226,37.219,36.6837,,182.226,89.4973,0.893923,89.3923,#N/A
191.22,30.762,30.9574,,191.22,43.219,43.5829,,191.22,71.177,0.71031,71.031,80.2876
200.214,35.032,33.8505,,200.214,38.487,42.1124,,200.214,91.0229,0.803815,80.3815,74.2053
209.208,30.029,33.7612,,209.208,40.21,41.34,,209.208,74.6804,0.816671,81.6671,82.5941
218.203,32.208,31.8774,,218.203,43.66,39.32,,218.203,73.77,0.810718,81.0718,78.2206
227.197,32.569,34.4858,,227.197,40.928,41.6867,,227.197,79.5763,0.827261,82.7261,80.8034
236.191,33.929,33.5307,,236.191,45.378,43.5585,,236.191,74.7697,0.769785,76.9785,76.4784
245.185,54.199,49.1732,,245.185,68.191,61.595,,245.185,79.4812,0.79833,79.833,76.5014
254.158,66.832,62.0686,,254.158,83.913,79.8665,,254.158,79.6444,0.777154,77.7154,76.3077
263.066,67.465,68.9227,,263.066,88.272,85.6838,,263.066,76.4285,0.804384,80.4384,78.7736
271.999,70.553,69.748,,271.999,96.63,93.8624,,271.999,73.0136,0.743088,74.3088,77.0259
280.958,68.822,68.8336,,280.958,90.533,89.5566,,280.958,76.0187,0.768604,76.8604,75.3891
289.943,73.273,72.8848,,289.943,90.255,90.6136,,289.943,81.1844,0.804347,80.4347,77.1541
298.952,72.269,69.5554,,298.952,95.431,93.5602,,298.952,75.7291,0.743429,74.3429,77.2521
307.987,66.266,68.2454,,307.987,92.334,89.9978,,307.987,71.7677,0.758301,75.8301,75.6426
317.047,69.262,66.4841,,317.047,95.055,94.2753,,317.047,72.8652,0.705212,70.5212,73.1038
326.132,70.258,70.2526,,326.132,94.958,93.6745,,326.132,73.9885,0.749966,74.9966,72.4369
335.243,75.435,74.8216,,335.243,101.496,98.891,,335.243,74.3231,0.756607,75.6607,73.5689
344.379,70.795,72.4873,,344.379,104.217,100.503,,344.379,67.9304,0.721246,72.1246,73.9932
353.539,76.407,73.9634,,353.539,106.567,104.59,,353.539,71.6986,0.707173,70.7173,70.7882
362.725,78.006,79.4923,,362.725,115.754,112.854,,362.725,67.3895,0.704379,70.4379,70.839
371.936,83.069,83.4633,,371.936,123.06,119.205,,371.936,67.5028,0.700167,70.0167,69.2555
381.171,94.566,90.322,,381.171,137.525,133.26,,381.171,68.7628,0.677789,67.7789,68.8807
390.432,102.362,95.6449,,390.432,150.717,144.106,,390.432,67.9167,0.663712,66.3712,65.9388
399.718,212.007,161.196,,399.718,272.022,218.252,,399.718,77.9374,0.738578,73.8578,69.5571
409.028,1089.8,708.928,,409.028,1208.244,808.398,,409.028,90.197,0.876954,87.6954,81.0719
418.364,6010.768,4025.6,,418.364,6479.905,4361.01,,418.364,92.7601,0.923088,92.3088,90.7415
427.724,22513.075,16710.1,,427.724,23830.084,17724.6,,427.724,94.4733,0.942768,94.2768,93.4313
437.108,53649.255,43754.6,,437.108,56269.108,46051.4,,437.108,95.3441,0.950124,95.0124,94.629
446.518,58976.651,60915.4,,446.518,60380.834,61991.5,,446.518,97.6745,0.982641,98.2641,96.874
455.952,24774.728,33670.3,,455.952,26403.844,35592,,455.952,93.83,0.946006,94.6006,96.2592
465.411,10731.894,14172.8,,465.411,11596.916,15200.4,,465.411,92.5409,0.932397,93.2397,93.9209
474.895,5479.594,6643.01,,474.895,6015.105,7261.93,,474.895,91.0972,0.914772,91.4772,92.316
484.403,4086.88,4359.95,,484.403,4613.299,4880.49,,484.403,88.5891,0.893344,89.3344,90.5112
493.936,5274.127,4765.91,,493.936,6134.021,5491.74,,493.936,85.9816,0.867832,86.7832,88.0799
503.493,8317.818,7368.02,,503.493,10106.778,8836.5,,503.493,82.2994,0.833817,83.3817,85.1155
513.074,11369.523,10530.4,,513.074,14446.963,13216.5,,513.074,78.6984,0.796765,79.6765,81.5468
522.681,13037.864,12642.3,,522.681,17402.064,16648.3,,522.681,74.9214,0.759373,75.9373,77.8157
532.311,13152.02,13222.9,,532.311,18380.58,18221.8,,532.311,71.5539,0.725665,72.5665,74.239
541.966,12269.722,12554.9,,541.966,18090.567,18218.8,,541.966,67.8239,0.689114,68.9114,70.7359
551.645,11257.577,11552.1,,551.645,17389.423,17628.1,,551.645,64.7381,0.655323,65.5323,67.1356
561.348,10302.824,10571.6,,561.348,16250.673,16589.7,,561.348,63.3994,0.637237,63.7237,64.5017
571.076,9345.841,9617.41,,571.076,14842.811,15280.2,,571.076,62.9654,0.629402,62.9402,63.2473
580.828,8387.985,8665.47,,580.828,13316.289,13768.3,,580.828,62.9904,0.629379,62.9379,62.9389
590.604,7429.883,7701.81,,590.604,11676.05,12159.6,,590.604,63.6335,0.633393,63.3393,63.0368
600.404,6599.867,6829.45,,600.404,9996.849,10502.9,,600.404,66.0195,0.650246,65.0246,63.9862
610.229,5826.831,6042.5,,610.229,8324.554,8809.51,,610.229,69.9957,0.685906,68.5906,66.6856
620.077,5099.384,5312.45,,620.077,6734.089,7201.65,,620.077,75.7249,0.737672,73.7672,71.0942
629.949,4444.849,4639.71,,629.949,5317.543,5729.63,,629.949,83.5884,0.809775,80.9775,77.1452
639.846,3808.242,3988.08,,639.846,4218.878,4532.11,,639.846,90.2667,0.879962,87.9962,84.5723
649.766,3187.438,3370.45,,649.766,3271.211,3533.54,,649.766,97.4391,0.953845,95.3845,91.6406
659.71,2589.427,2756.03,,659.71,2492.87,2714.3,,659.71,103.873,1.01537,101.537,98.3713
669.678,2027.096,2181.71,,669.678,1873.849,2048.16,,669.678,108.178,1.0652,106.52,104.23
679.67,1559.731,1689.81,,679.67,1407.015,1539.76,,679.67,110.854,1.09745,109.745,108.156
689.686,1161.949,1274.01,,689.686,1055.543,1148.23,,689.686,110.081,1.10954,110.954,110.671
699.726,876.056,960.191,,699.726,793.442,867.434,,699.726,110.412,1.10693,110.693,110.735
709.789,659.119,722.898,,709.789,609.751,660.452,,709.789,108.096,1.09455,109.455,110.119
719.876,493.352,537.776,,719.876,454.741,495.487,,719.876,108.491,1.08535,108.535,108.988
729.987,376.083,407.606,,729.987,359.991,387.199,,729.987,104.47,1.05271,105.271,106.779
740.121,305.215,319.727,,740.121,300.205,312.262,,740.121,101.669,1.02391,102.391,103.962
750.279,248.148,264.051,,750.279,248.84,263.198,,750.279,99.7219,1.00324,100.324,101.854
760.46,188.107,207.962,,760.46,204.293,221.999,,760.46,92.0771,0.936767,93.6767,96.4949
770.665,173.924,178.288,,770.665,193.588,199.951,,770.665,89.8423,0.891659,89.1659,90.0056
780.894,152.369,157.543,,780.894,180.465,184.937,,780.894,84.4313,0.85187,85.187,86.9817
791.146,135.509,138.765,,791.146,155.299,160.44,,791.146,87.2568,0.864902,86.4902,86.0745
801.421,117.878,121.835,,801.421,149.967,149.915,,801.421,78.6026,0.812694,81.2694,84.8652
811.72,118.597,117.965,,811.72,146.042,147.85,,811.72,81.2075,0.797873,79.7873,79.8096
822.042,133.746,126.925,,822.042,162.001,155.059,,822.042,82.5587,0.81856,81.856,79.4156
832.387,191.058,174.944,,832.387,212.616,200.136,,832.387,89.8606,0.874123,87.4123,84.4856
842.755,329.428,259.934,,842.755,333.384,272.42,,842.755,98.8134,0.954166,95.4166,90.1568
853.147,693.635,586.155,,853.147,694.657,589.044,,853.147,99.8529,0.995095,99.5095,98.4918
863.562,947.839,898.263,,863.562,925.745,874.019,,863.562,102.387,1.02774,102.774,101.227
874,1172.952,1090.33,,874,1123.132,1046.42,,874,104.436,1.04196,104.196,103.459
884.461,1615.986,1490.93,,884.461,1538.543,1420.4,,884.461,105.034,1.04965,104.965,104.661
894.946,1690.873,1718.51,,894.946,1606.768,1632.49,,894.946,105.234,1.05269,105.269,105.217
905.453,1207.717,1357.29,,905.453,1162.273,1298.52,,905.453,103.91,1.04525,104.525,105.029
915.983,791.319,899.031,,915.983,779.347,876.084,,915.983,101.536,1.02619,102.619,103.657
926.537,539.977,611.615,,926.537,550.145,611.073,,926.537,98.1518,1.00089,100.089,101.68
937.113,361.903,409.151,,937.113,374.39,419.664,,937.113,96.6647,0.974951,97.4951,98.8527
947.712,261.732,285.698,,947.712,287.625,308.57,,947.712,90.9977,0.925879,92.5879,95.4701
958.334,220.463,229.446,,958.334,235.305,247.702,,958.334,93.6924,0.926301,92.6301,92.2338
968.979,200.097,205.319,,968.979,219.156,221.753,,968.979,91.3035,0.925892,92.5892,91.9805
979.646,200.087,198.208,,979.646,223.994,219.881,,979.646,89.3269,0.901429,90.1429,90.947
990.336,222.705,216.81,,990.336,255.455,246.471,,990.336,87.1797,0.879658,87.9658,89.6153
1001.049,262.495,249.81,,1001.049,300.356,287.985,,1001.049,87.3946,0.867441,86.7441,87.4194
1011.785,324.184,298.469,,1011.785,367.422,339.365,,1011.785,88.2321,0.879492,87.9492,87.6883
1022.543,431.68,397.768,,1022.543,499.288,463.801,,1022.543,86.4591,0.857626,85.7626,86.7722
1033.324,487.072,476.259,,1033.324,578.316,561.291,,1033.324,84.2225,0.848507,84.8507,85.5433
1044.128,481.542,483.499,,1044.128,590.776,587.997,,1044.128,81.5101,0.82228,82.228,83.2204
1054.954,460.178,464.792,,1054.954,594.94,597.752,,1054.954,77.3486,0.777568,77.7568,80.1801
1065.802,435.252,445.156,,1065.802,567.258,573.583,,1065.802,76.7291,0.776097,77.6097,77.8782
1076.673,408.945,410.942,,1076.673,539.548,552.254,,1076.673,75.794,0.744117,74.4117,75.4023
1087.567,373.617,382.353,,1087.567,514.169,524.895,,1087.567,72.6642,0.728438,72.8438,74.2312
1098.461,342.085,349.291,,1098.461,495.209,503.172,,1098.461,69.0789,0.694179,69.4179,71.2444
1109.207,312.712,324.448,,1109.207,467.849,473.81,,1109.207,66.8404,0.684763,68.4763,68.9649
1119.954,288.951,295.592,,1119.954,424.267,434.548,,1119.954,68.1059,0.68023,68.023,67.814
1130.7,263.344,271.843,,1130.7,393.187,403.106,,1130.7,66.9768,0.674372,67.4372,67.5743
1141.446,229.801,241.447,,1141.446,346.154,357.45,,1141.446,66.3869,0.675471,67.5471,67.1085
1152.192,202.866,214.326,,1152.192,303.532,316.029,,1152.192,66.8351,0.678183,67.8183,66.7693
1162.938,176.904,183.23,,1162.938,273.956,282.136,,1162.938,64.5739,0.649437,64.9437,65.6921
1173.684,152.735,159.492,,1173.684,239.977,249.836,,1173.684,63.6457,0.638386,63.8386,64.3381
1184.43,141.545,147.08,,1184.43,215.417,222.34,,1184.43,65.7074,0.661511,66.1511,64.6821
1195.177,129.793,130.225,,1195.177,194.106,196.649,,1195.177,66.8671,0.662222,66.2222,65.5777
1205.923,144.217,137.833,,1205.923,193.602,190.628,,1205.923,74.4915,0.723045,72.3045,69.1198
1216.669,129.01,132.585,,1216.669,158.562,173.626,,1216.669,81.3625,0.763624,76.3624,74.1638
1227.415,83.187,92.1535,,1227.415,103.645,120.474,,1227.415,80.2615,0.764923,76.4923,76.2985
1238.161,64.674,68.0802,,1238.161,78.243,85.1732,,1238.161,82.6579,0.799315,79.9315,78.3871
1242.586,47.816,58.2367,,1242.586,64.806,76.3368,,1242.586,73.7833,0.762891,76.2891,