File: public_html/data/backup/plexiglas_6C02.csv
wavelength_nm,intensity,intensity_smoothed,,wavelength_nm2,intensity_i0,intensity_i0_smoothed,,wavelength_nm3,,transmission,transmission_perc,transmission_perc_smoothed
173.232,22.939,#N/A,,173.232,26.786,#N/A,,173.232,85.638,#N/A,#N/A,#N/A
182.226,34.678,32.5866,,182.226,35.237,34.8089,,182.226,98.4136,0.936159,93.6159,#N/A
191.22,30.31,30.5174,,191.22,34.688,38.2618,,191.22,87.3789,0.797595,79.7595,87.0091
200.214,36.76,31.5687,,200.214,34.593,33.7256,,200.214,106.264,0.936046,93.6046,88.3298
209.208,29.937,32.7677,,209.208,39.771,35.6535,,209.208,75.2734,0.91906,91.906,96.5759
218.203,29.478,30.6727,,218.203,37.039,33.577,,218.203,79.5864,0.913506,91.3506,91.1453
227.197,33.11,32.2115,,227.197,37.035,37.3027,,227.197,89.4019,0.863516,86.3516,91.6787
236.191,37.56,33.2673,,236.191,27.485,31.4748,,236.191,136.656,1.05695,105.695,93.7383
245.185,54.555,50.5268,,245.185,63.117,56.0939,,245.185,86.4347,0.900754,90.0754,101.366
254.158,61.822,58.476,,254.158,77.748,75.9505,,254.158,79.5159,0.769922,76.9922,82.9214
263.066,69.726,67.9197,,263.066,83.107,83.5233,,263.066,83.8991,0.813182,81.3182,78.1926
271.999,72.903,71.0739,,271.999,80.375,82.205,,271.999,90.7036,0.864594,86.4594,82.9784
280.958,65.533,67.3977,,280.958,85.279,82.4355,,280.958,76.8454,0.817581,81.7581,86.3588
289.943,68.164,69.6895,,289.943,89.91,87.607,,289.943,75.8136,0.795478,79.5478,77.8439
298.952,68.34,65.7389,,298.952,84.904,83.8708,,298.952,80.4909,0.783811,78.3811,79.0722
307.987,65.334,67.4196,,307.987,79.807,85.0579,,307.987,81.865,0.792631,79.2631,79.9798
317.047,72.419,67.5656,,317.047,83.347,85.6554,,317.047,86.8886,0.788807,78.8807,79.1123
326.132,66.503,67.5308,,326.132,84.341,86.2212,,326.132,78.8501,0.783227,78.3227,80.161
335.243,69.678,69.1217,,335.243,93.698,90.7122,,335.243,74.3644,0.761989,76.1989,76.4588
344.379,63.308,66.5573,,344.379,90.874,88.2733,,344.379,69.6657,0.753992,75.3992,75.5436
353.539,71.156,71.518,,353.539,93.625,92.69,,353.539,76.0011,0.771582,77.1582,76.1718
362.725,73.938,78.6892,,362.725,93.62,95.0673,,362.725,78.9767,0.827721,82.7721,79.6385
371.936,81.077,78.1477,,371.936,104.25,101.025,,371.936,77.7717,0.773552,77.3552,77.8129
381.171,82.27,80.4356,,381.171,112.399,109.069,,381.171,73.1946,0.737474,73.7474,75.1094
390.432,84.137,84.4963,,390.432,126.82,117.99,,390.432,66.3436,0.716133,71.6133,72.045
399.718,153.127,121.769,,399.718,255.638,197.26,,399.718,59.8999,0.617305,61.7305,67.085
409.028,534.057,380.855,,409.028,1209.068,790.336,,409.028,44.171,0.48189,48.189,56.6969
418.364,1887.333,1349.42,,418.364,6943.145,4622.08,,418.364,27.1827,0.29195,29.195,37.7976
427.724,6408.45,4961.73,,427.724,26342.847,19491.6,,427.724,24.3271,0.254557,25.4557,26.8553
437.108,6490.286,6985.95,,437.108,63776.327,52378.6,,437.108,10.1766,0.133374,13.3374,20.2121
446.518,4458.28,4813.53,,446.518,61778.432,62848.5,,446.518,7.21656,0.0765894,7.65894,9.77679
455.952,3920.328,4275.12,,455.952,29348.811,39040.2,,455.952,13.3577,0.109505,10.9505,8.57018
465.411,1022.593,1756.61,,465.411,12896.067,16910.4,,465.411,7.9295,0.103877,10.3877,11.8056
474.895,637.75,623.094,,474.895,6668.058,8047.41,,474.895,9.56425,0.077428,7.7428,8.18199
484.403,2541.495,1743.16,,484.403,5161.596,5415.69,,484.403,49.2385,0.321872,32.1872,16.2323
493.936,7406.91,5931.59,,493.936,7190.779,6348.99,,493.936,103.006,0.934258,93.4258,64.3279
503.493,13065.505,11296.4,,503.493,12295.73,10671.8,,503.493,106.261,1.05853,105.853,102.261
513.074,19523.11,17666,,513.074,17987.804,16371.3,,513.074,108.535,1.07908,107.908,106.817
522.681,23463.115,22519.7,,522.681,21946.814,20907.2,,522.681,106.909,1.07713,107.713,108.175
532.311,24320.586,24236.4,,532.311,23496.634,23215.1,,532.311,103.507,1.04399,104.399,106.05
541.966,23749.652,23922.1,,541.966,23404.455,23474.1,,541.966,101.475,1.01909,101.909,103.06
551.645,22917.217,23184.8,,551.645,22620.916,22902.4,,551.645,101.31,1.01233,101.233,101.476
561.348,21577.284,22002.3,,561.348,21446.354,21819.4,,561.348,100.611,1.00839,100.839,101.07
571.076,19750.186,20343.5,,571.076,19752.474,20281.2,,571.076,99.9884,1.00308,100.308,100.561
580.828,17765.653,18389.9,,580.828,17905.662,18453.6,,580.828,99.2181,0.996548,99.6548,99.9664
590.604,15649.862,16275,,590.604,15779.739,16404.7,,590.604,99.1769,0.992097,99.2097,99.3314
600.404,13416.508,14072,,600.404,13544.34,14207.5,,600.404,99.0562,0.990464,99.0464,99.208
610.229,11132.696,11782.2,,610.229,11237.642,11910.8,,610.229,99.0661,0.98921,98.921,98.9618
620.077,9014.226,9619.66,,620.077,9110.589,9742.29,,620.077,98.9423,0.987413,98.7413,98.7976
629.949,7135.853,7680.55,,629.949,7253.439,7787.88,,629.949,98.3789,0.986218,98.6218,98.8498
639.846,5577.973,6034.34,,639.846,5684.101,6127.03,,639.846,98.1329,0.984871,98.4871,98.5357
649.766,4278.509,4647.24,,649.766,4369.577,4738.13,,649.766,97.9159,0.980818,98.0818,98.2343
659.71,3219.245,3526.9,,659.71,3288.685,3591.12,,659.71,97.8885,0.982117,98.2117,98.0709
669.678,2388.708,2622.15,,669.678,2442.874,2674.65,,669.678,97.7827,0.980372,98.0372,98.1297
679.67,1769.46,1935.12,,679.67,1818.585,1987.78,,679.67,97.2987,0.973508,97.3508,97.7328
689.686,1288.561,1420.09,,689.686,1333.341,1461.62,,689.686,96.6415,0.971585,97.1585,97.1934
699.726,947.832,1038.6,,699.726,971.408,1066.88,,699.726,97.573,0.973485,97.3485,97.0636
709.789,687.574,757.179,,709.789,725.356,789.904,,709.789,94.7912,0.95857,95.857,96.8358
719.876,498.854,550.144,,719.876,528.67,580.262,,719.876,94.3602,0.948096,94.8096,95.5081
729.987,363.241,402.444,,729.987,392.852,429.075,,729.987,92.4626,0.937934,93.7934,94.6743
740.121,283.657,303.519,,740.121,301.501,327.788,,740.121,94.0816,0.925961,92.5961,93.3792
750.279,209.974,233.17,,750.279,240.537,254.717,,750.279,87.2938,0.915405,91.5405,92.7456
760.46,182.935,192.072,,760.46,198.468,211.289,,760.46,92.1735,0.90905,90.905,89.5674
770.665,145.274,151.844,,770.665,168.205,179.624,,770.665,86.3672,0.845341,84.5341,87.9906
780.894,122.342,128.075,,780.894,141.966,151.239,,780.894,86.177,0.846842,84.6842,85.5438
791.146,106.054,110.076,,791.146,132.738,137.751,,791.146,79.8972,0.799094,79.9094,83.2211
801.421,100.572,101.877,,801.421,125.872,125.831,,801.421,79.9002,0.809633,80.9633,80.9064
811.72,96.513,98.8204,,811.72,122.787,122.308,,811.72,78.602,0.807962,80.7962,81.2971
822.042,100.998,102.54,,822.042,143.609,135.905,,822.042,70.3285,0.754492,75.4492,78.1887
832.387,111.212,113.763,,832.387,213.119,194.586,,832.387,52.1831,0.58464,58.464,66.4663
842.755,157.384,132.955,,842.755,374.652,296.792,,842.755,42.0081,0.447975,44.7975,51.2647
853.147,277.321,242.435,,853.147,839.505,701.563,,853.147,33.0339,0.345563,34.5563,39.0759
863.562,277.875,292.999,,863.562,1167.416,1089.33,,863.562,23.8026,0.268972,26.8972,30.9676
874,201.291,223.538,,874,1458.677,1350.71,,874,13.7996,0.165497,16.5497,21.5657
884.461,167.078,174.85,,884.461,2008.756,1856.17,,884.461,8.31749,0.0941994,9.41994,12.5161
894.946,177.178,172.473,,894.946,2096.312,2136.09,,894.946,8.45189,0.0807426,8.07426,8.35889
905.453,207.081,200.138,,905.453,1501.394,1682.34,,905.453,13.7926,0.118964,11.8964,9.64655
915.983,186.429,199.797,,915.983,988.66,1118.11,,915.983,18.8567,0.178691,17.8691,14.9624
926.537,118.604,141.18,,926.537,680.557,763.298,,926.537,17.4275,0.184961,18.4961,18.9175
937.113,77.228,86.0526,,937.113,451.536,508.519,,937.113,17.1034,0.169222,16.9222,17.8111
947.712,74.115,77.4403,,947.712,329.143,359.08,,947.712,22.5176,0.215663,21.5663,18.8364
958.334,85.449,79.4649,,958.334,270.377,284.768,,958.334,31.6036,0.279052,27.9052,24.4735
968.979,126.318,110.742,,968.979,245.6,250.203,,968.979,51.4324,0.442608,44.2608,35.6932
979.646,204.54,178.04,,979.646,261.812,255.071,,979.646,78.1248,0.698001,69.8001,56.398
990.336,292.023,267.832,,990.336,304.103,287.506,,990.336,96.0277,0.931571,93.1571,82.6871
1001.049,358.947,338.903,,1001.049,360.561,344.59,,1001.049,99.5524,0.983497,98.3497,96.0074
1011.785,469.585,426.857,,1011.785,460.821,427.638,,1011.785,101.902,0.998174,99.8174,98.7495
1022.543,675.388,612.072,,1022.543,661.52,601.668,,1022.543,102.096,1.01729,101.729,101.875
1033.324,799.901,772.066,,1033.324,766.018,742.532,,1033.324,104.423,1.03977,103.977,103.333
1044.128,817.85,815.587,,1044.128,790.858,786.687,,1044.128,103.413,1.03674,103.674,104.014
1054.954,804.231,811.861,,1054.954,785.495,789.002,,1054.954,102.385,1.02897,102.897,103.293
1065.802,764.59,776.339,,1065.802,755.742,768.407,,1065.802,101.171,1.01032,101.032,101.609
1076.673,719.377,732.872,,1076.673,725.053,733.084,,1076.673,99.2172,0.999711,99.9711,100.674
1087.567,675.227,687.728,,1087.567,681.516,691.466,,1087.567,99.0772,0.994595,99.4595,99.5494
1098.461,639.411,652.642,,1098.461,651.492,658.739,,1098.461,98.1456,0.990746,99.0746,99.2571
1109.207,598.107,609.011,,1109.207,600.16,617.068,,1109.207,99.6579,0.986943,98.6943,98.1775
1119.954,543.676,559.335,,1119.954,551.335,571.208,,1119.954,98.6108,0.979214,97.9214,98.7544
1130.7,491.664,511.714,,1130.7,503.471,516.163,,1130.7,97.6549,0.99138,99.138,99.0406
1141.446,430.885,452.57,,1141.446,436.474,453.839,,1141.446,98.7195,0.997203,99.7203,98.9655
1152.192,372.795,390.464,,1152.192,381.618,401.382,,1152.192,97.688,0.972801,97.2801,98.1571
1162.938,319.303,335.075,,1162.938,332.811,345.955,,1162.938,95.9412,0.968551,96.8551,97.3575
1173.684,273.139,286.066,,1173.684,295.239,307.404,,1173.684,92.5145,0.930586,93.0586,95.0384
1184.43,234.308,243.76,,1184.43,255.181,264.288,,1184.43,91.8203,0.922326,92.2326,92.4684
1195.177,196.002,205.973,,1195.177,220.372,233.904,,1195.177,88.9414,0.880588,88.0588,89.6552
1205.923,168.777,177.282,,1205.923,216.735,224.26,,1205.923,77.8725,0.790523,79.0523,85.0841
1216.669,134.469,145.043,,1216.669,185.106,198.968,,1216.669,72.6443,0.728976,72.8976,74.8212
1227.415,100.553,109.97,,1227.415,116.599,134.267,,1227.415,86.2383,0.819037,81.9037,76.0468
1238.161,73.326,81.132,,1238.161,88.33,97.3703,,1238.161,83.0137,0.833232,83.3232,84.7434
1242.586,75.143,74.2769,,1242.586,79.058,86.0609,,1242.586,95.0479,0.863074,86.3074,