File: public_html/data/backup/plexiglas_3H55.csv
wavelength_nm,intensity,intensity_smoothed,,wavelength_nm2,intensity_i0,intensity_i0_smoothed,,wavelength_nm3,,transmission,transmission_perc,transmission_perc_smoothed
173.232,4.4,#N/A,,173.232,26.786,#N/A,,173.232,16.4265,#N/A,#N/A,#N/A
182.226,17.353,11.6602,,182.226,35.237,34.8089,,182.226,49.2465,0.334977,33.4977,#N/A
191.22,12.715,11.4058,,191.22,34.688,38.2618,,191.22,36.6553,0.298098,29.8098,30.8609
200.214,11.168,10.4919,,200.214,34.593,33.7256,,200.214,32.284,0.311097,31.1097,33.5374
209.208,19.529,16.1659,,209.208,39.771,35.6535,,209.208,49.1036,0.453418,45.3418,39.4881
218.203,16.255,16.7428,,218.203,37.039,33.577,,218.203,43.8862,0.498639,49.8639,50.3409
227.197,13.434,14.9709,,227.197,37.035,37.3027,,227.197,36.2738,0.401335,40.1335,42.121
236.191,17.796,15.2146,,236.191,27.485,31.4748,,236.191,64.748,0.483388,48.3388,39.1549
245.185,4.521,8.95834,,245.185,63.117,56.0939,,245.185,7.16289,0.159703,15.9703,39.7079
254.158,11.246,14.2588,,254.158,77.748,75.9505,,254.158,14.4647,0.187738,18.7738,16.5564
263.066,14.335,15.2023,,263.066,83.107,83.5233,,263.066,17.2488,0.182013,18.2013,17.5947
271.999,12.423,13.7855,,271.999,80.375,82.205,,271.999,15.4563,0.167697,16.7697,17.4706
280.958,13.785,11.6299,,280.958,85.279,82.4355,,280.958,16.1646,0.141079,14.1079,15.6045
289.943,13.691,13.4094,,289.943,89.91,87.607,,289.943,15.2274,0.153063,15.3063,15.3974
298.952,18.961,14.7869,,298.952,84.904,83.8708,,298.952,22.3323,0.176306,17.6306,17.5784
307.987,13.595,17.1757,,307.987,79.807,85.0579,,307.987,17.0348,0.20193,20.193,20.3817
317.047,12.774,14.2989,,317.047,83.347,85.6554,,317.047,15.3263,0.166935,16.6935,17.9636
326.132,9.147,14.9917,,326.132,84.341,86.2212,,326.132,10.8453,0.173875,17.3875,18.4391
335.243,16.961,14.2426,,335.243,93.698,90.7122,,335.243,18.1018,0.157009,15.7009,13.9791
344.379,12.956,13.2606,,344.379,90.874,88.2733,,344.379,14.2571,0.150222,15.0222,15.1509
353.539,13.632,13.2357,,353.539,93.625,92.69,,353.539,14.5602,0.142796,14.2796,14.5456
362.725,11.629,14.2896,,362.725,93.62,95.0673,,362.725,12.4215,0.15031,15.031,16.4022
371.936,20.193,16.9025,,371.936,104.25,101.025,,371.936,19.3698,0.167311,16.7311,13.6727
381.171,12.517,12.906,,381.171,112.399,109.069,,381.171,11.1362,0.118329,11.8329,15.1236
390.432,15.032,16.3938,,390.432,126.82,117.99,,390.432,11.853,0.138943,13.8943,13.256
399.718,17.857,15.8721,,399.718,255.638,197.26,,399.718,6.98527,0.0804629,8.04629,11.0998
409.028,32.125,27.9334,,409.028,1209.068,790.336,,409.028,2.65701,0.0353436,3.53436,5.90248
418.364,69.952,57.0177,,418.364,6943.145,4622.08,,418.364,1.0075,0.0123359,1.23359,2.17596
427.724,87.885,82.1394,,427.724,26342.847,19491.6,,427.724,0.33362,0.00421409,0.421409,0.7675
437.108,63.057,72.1701,,437.108,63776.327,52378.6,,437.108,0.0988721,0.00137786,0.137786,0.261539
446.518,22.66,33.1864,,446.518,61778.432,62848.5,,446.518,0.0366795,0.000528038,0.0528038,0.0908703
455.952,13.319,16.6502,,455.952,29348.811,39040.2,,455.952,0.0453817,0.000426489,0.0426489,0.0428781
465.411,13.515,11.6473,,465.411,12896.067,16910.4,,465.411,0.104799,0.000688765,0.0688765,0.0571943
474.895,16.997,15.2821,,474.895,6668.058,8047.41,,474.895,0.254902,0.00189901,0.189901,0.131804
484.403,14.213,15.8935,,484.403,5161.596,5415.69,,484.403,0.275361,0.00293472,0.293472,0.283068
493.936,17.267,17.1746,,493.936,7190.779,6348.99,,493.936,0.240127,0.0027051,0.27051,0.281429
503.493,14.219,11.9194,,503.493,12295.73,10671.8,,503.493,0.115642,0.0011169,0.11169,0.196228
513.074,10.674,9.1046,,513.074,17987.804,16371.3,,513.074,0.0593402,0.000556131,0.0556131,0.0793559
522.681,17.661,15.5688,,522.681,21946.814,20907.2,,522.681,0.0804718,0.000744663,0.0744663,0.0722749
532.311,12.135,13.1576,,532.311,23496.634,23215.1,,532.311,0.0516457,0.000566767,0.0566767,0.0622106
541.966,12.975,14.8907,,541.966,23404.455,23474.1,,541.966,0.0554382,0.000634347,0.0634347,0.0619513
551.645,18.13,15.0303,,551.645,22620.916,22902.4,,551.645,0.0801471,0.000656276,0.0656276,0.0684679
561.348,56.531,40.8068,,561.348,21446.354,21819.4,,561.348,0.263593,0.00187021,0.187021,0.117672
571.076,227.226,158.334,,571.076,19752.474,20281.2,,571.076,1.15037,0.00780695,0.780695,0.410539
580.828,843.325,628.871,,580.828,17905.662,18453.6,,580.828,4.70982,0.0340784,3.40784,1.85913
590.604,2009.446,1632.68,,590.604,15779.739,16404.7,,590.604,12.7343,0.0995251,9.95251,6.31076
600.404,3310.25,2941.99,,600.404,13544.34,14207.5,,600.404,24.4401,0.207074,20.7074,15.0884
610.229,4150.961,3955.97,,610.229,11237.642,11910.8,,610.229,36.938,0.332134,33.2134,26.9569
620.077,4296.447,4303.7,,620.077,9110.589,9742.29,,620.077,47.1588,0.441755,44.1755,38.8912
629.949,3969.025,4085.31,,629.949,7253.439,7787.88,,629.949,54.7192,0.524573,52.4573,48.4542
639.846,3310.183,3512.62,,639.846,5684.101,6127.03,,639.846,58.2358,0.573299,57.3299,55.1874
649.766,2635.838,2834.24,,649.766,4369.577,4738.13,,649.766,60.3225,0.598178,59.8178,58.6475
659.71,2010.841,2191.32,,659.71,3288.685,3591.12,,659.71,61.1442,0.610205,61.0205,60.3572
669.678,1504.028,1644.6,,669.678,2442.874,2674.65,,669.678,61.568,0.614885,61.4885,61.2626
679.67,1107.29,1221.07,,679.67,1818.585,1987.78,,679.67,60.8874,0.614291,61.4291,61.6187
689.686,806.1,891.838,,689.686,1333.341,1461.62,,689.686,60.4572,0.610173,61.0173,61.1647
699.726,579.03,643.158,,699.726,971.408,1066.88,,699.726,59.6073,0.602837,60.2837,60.4294
709.789,418.733,460.147,,709.789,725.356,789.904,,709.789,57.7279,0.582536,58.2536,59.117
719.876,288.083,324.692,,719.876,528.67,580.262,,719.876,54.492,0.559561,55.9561,57.007
729.987,205.501,229.427,,729.987,392.852,429.075,,729.987,52.31,0.534703,53.4703,54.8189
740.121,152.358,169.429,,740.121,301.501,327.788,,740.121,50.5332,0.516886,51.6886,52.5934
750.279,107.347,118.904,,750.279,240.537,254.717,,750.279,44.6281,0.466809,46.6809,49.3455
760.46,83.128,85.9563,,760.46,198.468,211.289,,760.46,41.8848,0.406819,40.6819,43.7381
770.665,61.031,67.8305,,770.665,168.205,179.624,,770.665,36.2837,0.377624,37.7624,40.0518
780.894,43.413,50.7225,,780.894,141.966,151.239,,780.894,30.5799,0.33538,33.538,35.16
791.146,43.323,42.5147,,791.146,132.738,137.751,,791.146,32.638,0.308634,30.8634,31.6964
801.421,33.344,34.2072,,801.421,125.872,125.831,,801.421,26.4904,0.271851,27.1851,28.6631
811.72,26.712,29.4511,,811.72,122.787,122.308,,811.72,21.7547,0.240794,24.0794,24.3988
822.042,25.046,26.5639,,822.042,143.609,135.905,,822.042,17.4404,0.195459,19.5459,21.6968
832.387,24.277,24.506,,832.387,213.119,194.586,,832.387,11.3913,0.125939,12.5939,15.787
842.755,20.753,19.6425,,842.755,374.652,296.792,,842.755,5.53927,0.0661829,6.61829,9.79606
853.147,20.689,23.5463,,853.147,839.505,701.563,,853.147,2.46443,0.0335626,3.35626,5.18511
863.562,20.565,16.4667,,863.562,1167.416,1089.33,,863.562,1.76158,0.0151164,1.51164,2.22419
874,11.157,13.0223,,874,1458.677,1350.71,,874,0.764871,0.0096411,0.96411,1.26057
884.461,3.567,7.42497,,884.461,2008.756,1856.17,,884.461,0.177573,0.00400016,0.400016,0.667214
894.946,12.129,11.0558,,894.946,2096.312,2136.09,,894.946,0.578588,0.00517572,0.517572,0.402599
905.453,16.957,17.1949,,905.453,1501.394,1682.34,,905.453,1.12942,0.0102208,1.02208,0.706671
915.983,11.278,11.8761,,915.983,988.66,1118.11,,915.983,1.14074,0.0106215,1.06215,1.12026
926.537,11.93,14.633,,926.537,680.557,763.298,,926.537,1.75298,0.0191707,1.91707,1.51255
937.113,14.575,13.457,,937.113,451.536,508.519,,937.113,3.22787,0.0264632,2.64632,2.28589
947.712,18.214,14.996,,947.712,329.143,359.08,,947.712,5.53376,0.0417622,4.17622,3.55646
958.334,9.028,14.3197,,958.334,270.377,284.768,,958.334,3.33904,0.0502856,5.02856,4.87284
968.979,11.925,13.1737,,968.979,245.6,250.203,,968.979,4.85546,0.0526519,5.26519,5.07092
979.646,10.268,12.8335,,979.646,261.812,255.071,,979.646,3.9219,0.0503133,5.03133,5.68405
990.336,15.512,12.1883,,990.336,304.103,287.506,,990.336,5.1009,0.0423933,4.23933,4.79578
1001.049,16.29,11.9983,,1001.049,360.561,344.59,,1001.049,4.51796,0.034819,3.4819,4.02773
1011.785,15.33,11.5741,,1011.785,460.821,427.638,,1011.785,3.32667,0.0270652,2.70652,3.80015
1022.543,15.266,14.015,,1022.543,661.52,601.668,,1022.543,2.30772,0.0232935,2.32935,3.11359
1033.324,19.552,18.5145,,1033.324,766.018,742.532,,1033.324,2.55242,0.0249343,2.49343,2.31515
1044.128,17.187,16.413,,1044.128,790.858,786.687,,1044.128,2.17321,0.0208634,2.08634,2.20217
1054.954,16.896,15.6982,,1054.954,785.495,789.002,,1054.954,2.151,0.0198963,1.98963,2.02467
1065.802,15.132,14.803,,1065.802,755.742,768.407,,1065.802,2.00227,0.0192645,1.92645,2.04177
1076.673,13.348,11.1524,,1076.673,725.053,733.084,,1076.673,1.84097,0.0152129,1.52129,1.74198
1087.567,11.542,11.0983,,1087.567,681.516,691.466,,1087.567,1.69358,0.0160504,1.60504,1.70736
1098.461,9.439,7.99312,,1098.461,651.492,658.739,,1098.461,1.44883,0.012134,1.2134,1.30821
1109.207,9.584,10.7389,,1109.207,600.16,617.068,,1109.207,1.59691,0.0174031,1.74031,1.53122
1119.954,13.518,11.7306,,1119.954,551.335,571.208,,1119.954,2.45187,0.0205365,2.05365,1.8709
1130.7,7.879,8.77179,,1130.7,503.471,516.163,,1130.7,1.56494,0.0169942,1.69942,1.97682
1141.446,7.208,8.21378,,1141.446,436.474,453.839,,1141.446,1.65142,0.0180984,1.80984,1.9825
1152.192,11.598,8.08664,,1152.192,381.618,401.382,,1152.192,3.03916,0.020147,2.0147,1.86858
1162.938,23.868,19.0915,,1162.938,332.811,345.955,,1162.938,7.17164,0.055185,5.5185,3.48426
1173.684,20.382,19.1636,,1173.684,295.239,307.404,,1173.684,6.90356,0.0623403,6.23403,5.67162
1184.43,33.054,28.3054,,1184.43,255.181,264.288,,1184.43,12.9532,0.1071,10.71,7.88198
1195.177,35.618,33.5207,,1195.177,220.372,233.904,,1195.177,16.1627,0.14331,14.331,12.04
1205.923,43.084,37.2069,,1205.923,216.735,224.26,,1205.923,19.8787,0.16591,16.591,15.2386
1216.669,38.102,38.0399,,1216.669,185.106,198.968,,1216.669,20.5839,0.191186,19.1186,18.5584
1227.415,29.96,34.6985,,1227.415,116.599,134.267,,1227.415,25.6949,0.258429,25.8429,22.5782
1238.161,27.496,27.855,,1238.161,88.33,97.3703,,1238.161,31.1287,0.286073,28.6073,26.9402
1242.586,22.398,24.7609,,1242.586,79.058,86.0609,,1242.586,28.3311,0.287714,28.7714,