File: public_html/data/backup/plexiglas_WN370.csv
wavelength_nm,intensity,intensity_smoothed,,wavelength_nm2,intensity_i0,intensity_i0_smoothed,,wavelength_nm3,,transmission,transmission_perc,transmission_perc_smoothed
173.232,8.9,#N/A,,173.232,26.786,#N/A,,173.232,33.2263,#N/A,#N/A,#N/A
182.226,16.081,14.1531,,182.226,35.237,34.8089,,182.226,45.6367,0.406595,40.6595,#N/A
191.22,14.897,18.0133,,191.22,34.688,38.2618,,191.22,42.9457,0.470792,47.0792,44.137
200.214,16.44,17.1388,,200.214,34.593,33.7256,,200.214,47.5241,0.508185,50.8185,43.1827
209.208,15.802,16.7636,,209.208,39.771,35.6535,,209.208,39.7325,0.47018,47.018,45.6298
218.203,14.982,13.6604,,218.203,37.039,33.577,,218.203,40.4493,0.40684,40.684,43.9036
227.197,15.344,15.0232,,227.197,37.035,37.3027,,227.197,41.4311,0.402737,40.2737,43.6632
236.191,11.887,13.9615,,236.191,27.485,31.4748,,236.191,43.249,0.443577,44.3577,40.2903
245.185,13.885,14.6979,,245.185,63.117,56.0939,,245.185,21.9988,0.262022,26.2022,38.5293
254.158,9.246,11.2967,,254.158,77.748,75.9505,,254.158,11.8923,0.148737,14.8737,21.9645
263.066,24.426,17.9547,,263.066,83.107,83.5233,,263.066,29.391,0.214966,21.4966,17.3749
271.999,21.878,17.6138,,271.999,80.375,82.205,,271.999,27.2199,0.214267,21.4267,22.3033
280.958,21.421,21.3384,,280.958,85.279,82.4355,,280.958,25.1187,0.25885,25.885,25.3321
289.943,14.6,16.4523,,289.943,89.91,87.607,,289.943,16.2385,0.187796,18.7796,23.4912
298.952,17.87,17.8557,,298.952,84.904,83.8708,,298.952,21.0473,0.212895,21.2895,20.0952
307.987,18.05,18.0681,,307.987,79.807,85.0579,,307.987,22.6171,0.212421,21.2421,21.8797
317.047,19.592,19.9268,,317.047,83.347,85.6554,,317.047,23.5065,0.232639,23.2639,21.1415
326.132,17.68,19.2211,,326.132,84.341,86.2212,,326.132,20.9625,0.222927,22.2927,22.0802
335.243,16.405,18.1928,,335.243,93.698,90.7122,,335.243,17.5084,0.200555,20.0555,21.21
344.379,23.038,22.244,,344.379,90.874,88.2733,,344.379,25.3516,0.25199,25.199,20.7209
353.539,16.214,20.5492,,353.539,93.625,92.69,,353.539,17.318,0.221698,22.1698,24.8136
362.725,17.197,17.4798,,362.725,93.62,95.0673,,362.725,18.3689,0.183868,18.3868,20.601
371.936,20.76,21.7574,,371.936,104.25,101.025,,371.936,19.9137,0.215367,21.5367,19.832
381.171,20.781,18.6937,,381.171,112.399,109.069,,381.171,18.4886,0.171394,17.1394,18.4866
390.432,22.154,21.6418,,390.432,126.82,117.99,,390.432,17.4689,0.183421,18.3421,19.001
399.718,58.059,44.9248,,399.718,255.638,197.26,,399.718,22.7114,0.227745,22.7745,19.3927
409.028,322.231,205.081,,409.028,1209.068,790.336,,409.028,26.6512,0.259486,25.9486,23.9314
418.364,1945.968,1290.92,,418.364,6943.145,4622.08,,418.364,28.0272,0.279294,27.9294,27.1942
427.724,7304.938,5427.67,,427.724,26342.847,19491.6,,427.724,27.7303,0.278462,27.8462,27.9606
437.108,18071.448,14507.9,,437.108,63776.327,52378.6,,437.108,28.3357,0.276982,27.6982,27.7781
446.518,20925.364,22157.6,,446.518,61778.432,62848.5,,446.518,33.8716,0.352555,35.2555,32.2452
455.952,8097.928,11141.3,,455.952,29348.811,39040.2,,455.952,27.592,0.285381,28.5381,31.4197
465.411,3576.867,4687.16,,465.411,12896.067,16910.4,,465.411,27.7361,0.277176,27.7176,27.9511
474.895,1854.628,2230.2,,474.895,6668.058,8047.41,,474.895,27.8136,0.277132,27.7132,27.708
484.403,1454.604,1518,,484.403,5161.596,5415.69,,484.403,28.1813,0.280297,28.0297,27.875
493.936,2025.942,1787.29,,493.936,7190.779,6348.99,,493.936,28.1742,0.281508,28.1508,28.1528
503.493,3459.818,2996.06,,503.493,12295.73,10671.8,,503.493,28.1384,0.280745,28.0745,28.1326
513.074,5040.616,4588.28,,513.074,17987.804,16371.3,,513.074,28.0224,0.280263,28.0263,28.0569
522.681,6149.664,5856.56,,522.681,21946.814,20907.2,,522.681,28.0208,0.280122,28.0122,28.0029
532.311,6627.861,6531.63,,532.311,23496.634,23215.1,,532.311,28.2077,0.281353,28.1353,28.0565
541.966,6614.228,6627.61,,541.966,23404.455,23474.1,,541.966,28.2606,0.282337,28.2337,28.2229
551.645,6439.448,6495.28,,551.645,22620.916,22902.4,,551.645,28.4668,0.283606,28.3606,28.2974
561.348,6133.786,6223.98,,561.348,21446.354,21819.4,,561.348,28.6006,0.28525,28.525,28.4388
571.076,5707.056,5849.81,,571.076,19752.474,20281.2,,571.076,28.8929,0.288436,28.8436,28.6643
580.828,5200.611,5353.85,,580.828,17905.662,18453.6,,580.828,29.0445,0.290125,29.0125,28.9344
590.604,4618.855,4791.8,,590.604,15779.739,16404.7,,590.604,29.2708,0.2921,29.21,29.099
600.404,3994.292,4179.34,,600.404,13544.34,14207.5,,600.404,29.4905,0.294165,29.4165,29.3196
610.229,3365.936,3551.58,,610.229,11237.642,11910.8,,610.229,29.9523,0.298182,29.8182,29.6212
620.077,2760.165,2938.29,,620.077,9110.589,9742.29,,620.077,30.2962,0.301602,30.1602,29.9826
629.949,2253.776,2395.8,,629.949,7253.439,7787.88,,629.949,31.0718,0.307632,30.7632,30.4216
639.846,1775.412,1904.5,,639.846,5684.101,6127.03,,639.846,31.2347,0.310836,31.0836,30.9618
649.766,1368.944,1483.58,,649.766,4369.577,4738.13,,649.766,31.329,0.313115,31.3115,31.2491
659.71,1046.931,1139.33,,659.71,3288.685,3591.12,,659.71,31.8343,0.317264,31.7264,31.4881
669.678,791.372,866.855,,669.678,2442.874,2674.65,,669.678,32.3951,0.324101,32.4101,31.9828
679.67,587.471,638.127,,679.67,1818.585,1987.78,,679.67,32.3037,0.321026,32.1026,32.2487
689.686,441.542,478.163,,689.686,1333.341,1461.62,,689.686,33.1155,0.327147,32.7147,32.4575
699.726,317.343,354.93,,699.726,971.408,1066.88,,699.726,32.6684,0.332679,33.2679,33.0477
709.789,235.613,259.407,,709.789,725.356,789.904,,709.789,32.4824,0.328403,32.8403,32.7957
719.876,175.117,190.978,,719.876,528.67,580.262,,719.876,33.1241,0.329124,32.9124,32.7178
729.987,128.303,140.743,,729.987,392.852,429.075,,729.987,32.6594,0.328015,32.8015,33.06
740.121,100.113,108.6,,740.121,301.501,327.788,,740.121,33.2049,0.331313,33.1313,33.0409
750.279,79.371,81.1301,,750.279,240.537,254.717,,750.279,32.9974,0.31851,31.851,32.2413
760.46,66.822,70.1579,,760.46,198.468,211.289,,760.46,33.6689,0.332047,33.2047,31.7057
770.665,46.769,52.708,,770.665,168.205,179.624,,770.665,27.8048,0.293435,29.3435,31.2145
780.894,46.144,46.2004,,780.894,141.966,151.239,,780.894,32.5036,0.30548,30.548,30.5076
791.146,36.702,40.3291,,791.146,132.738,137.751,,791.146,27.65,0.292767,29.2767,31.161
801.421,33.402,35.5957,,801.421,125.872,125.831,,801.421,26.5365,0.282886,28.2886,28.7442
811.72,30.908,28.9515,,811.72,122.787,122.308,,811.72,25.172,0.236709,23.6709,27.0994
822.042,42.505,36.845,,822.042,143.609,135.905,,822.042,29.5977,0.271107,27.1107,25.2153
832.387,57.358,50.3757,,832.387,213.119,194.586,,832.387,26.9136,0.258887,25.8887,26.504
842.755,93.385,74.1194,,842.755,374.652,296.792,,842.755,24.9258,0.249735,24.9735,25.3069
853.147,194.733,166.552,,853.147,839.505,701.563,,853.147,23.1962,0.237401,23.7401,24.4913
863.562,266.547,251.768,,863.562,1167.416,1089.33,,863.562,22.8322,0.231123,23.1123,23.4249
874,335.204,309.887,,874,1458.677,1350.71,,874,22.98,0.229425,22.9425,23.0353
884.461,464.804,428.103,,884.461,2008.756,1856.17,,884.461,23.1389,0.230639,23.0639,23.014
894.946,481.929,490.668,,894.946,2096.312,2136.09,,894.946,22.9894,0.229704,22.9704,22.9908
905.453,355.084,393.879,,905.453,1501.394,1682.34,,905.453,23.6503,0.234125,23.4125,23.1285
915.983,234.165,263.334,,915.983,988.66,1118.11,,915.983,23.6851,0.235516,23.5516,23.601
926.537,158.782,180.511,,926.537,680.557,763.298,,926.537,23.3312,0.236488,23.6488,23.6502
937.113,107.481,121.739,,937.113,451.536,508.519,,937.113,23.8034,0.239398,23.9398,23.7051
947.712,80.353,86.7559,,947.712,329.143,359.08,,947.712,24.4128,0.241606,24.1606,24.2013
958.334,63.578,67.5141,,958.334,270.377,284.768,,958.334,23.5146,0.237085,23.7085,24.3152
968.979,59.974,61.4129,,968.979,245.6,250.203,,968.979,24.4194,0.245452,24.5452,24.3967
979.646,60.267,62.7353,,979.646,261.812,255.071,,979.646,23.0192,0.245952,24.5952,25.2256
990.336,75.909,69.2228,,990.336,304.103,287.506,,990.336,24.9616,0.24077,24.077,24.1558
1001.049,89.992,86.2483,,1001.049,360.561,344.59,,1001.049,24.9589,0.250292,25.0292,25.074
1011.785,119.24,109.494,,1011.785,460.821,427.638,,1011.785,25.8756,0.256044,25.6044,25.4156
1022.543,170.47,154.012,,1022.543,661.52,601.668,,1022.543,25.7694,0.255974,25.5974,25.3489
1033.324,193.407,186.499,,1033.324,766.018,742.532,,1033.324,25.2484,0.251166,25.1166,25.352
1044.128,206.231,199.581,,1044.128,790.858,786.687,,1044.128,26.0769,0.253698,25.3698,25.2138
1054.954,200.303,203.624,,1054.954,785.495,789.002,,1054.954,25.5002,0.258078,25.8078,25.9833
1065.802,198.713,200.18,,1065.802,755.742,768.407,,1065.802,26.2938,0.260513,26.0513,25.9379
1076.673,188.911,189.908,,1076.673,725.053,733.084,,1076.673,26.0548,0.259053,25.9053,26.0185
1087.567,186.805,188.547,,1087.567,681.516,691.466,,1087.567,27.4102,0.272678,27.2678,26.4881
1098.461,172.482,174.623,,1098.461,651.492,658.739,,1098.461,26.4749,0.265087,26.5087,26.7441
1109.207,160.94,167.358,,1109.207,600.16,617.068,,1109.207,26.8162,0.271215,27.1215,26.9435
1119.954,154.721,155.128,,1119.954,551.335,571.208,,1119.954,28.063,0.271579,27.1579,27.1482
1130.7,142.732,143.699,,1130.7,503.471,516.163,,1130.7,28.3496,0.278399,27.8399,27.3606
1141.446,121.7,125.6,,1141.446,436.474,453.839,,1141.446,27.8825,0.27675,27.675,27.4332
1152.192,105.441,110.935,,1152.192,381.618,401.382,,1152.192,27.63,0.276384,27.6384,27.4693
1162.938,94.593,99.7251,,1162.938,332.811,345.955,,1162.938,28.4224,0.28826,28.826,28.1153
1173.684,79.613,86.0318,,1173.684,295.239,307.404,,1173.684,26.9656,0.279866,27.9866,28.5048
1184.43,70.963,75.9979,,1184.43,255.181,264.288,,1184.43,27.8089,0.287557,28.7557,28.6188
1195.177,61.379,65.846,,1195.177,220.372,233.904,,1195.177,27.8524,0.281509,28.1509,28.0957
1205.923,56.511,59.3356,,1205.923,216.735,224.26,,1205.923,26.0738,0.264584,26.4584,27.6947
1216.669,43.198,47.1386,,1216.669,185.106,198.968,,1216.669,23.3369,0.236916,23.6916,25.3796
1227.415,32.099,38.2543,,1227.415,116.599,134.267,,1227.415,27.5294,0.284911,28.4911,25.2759
1238.161,17.879,21.5626,,1238.161,88.33,97.3703,,1238.161,20.2411,0.221449,22.1449,26.0541
1242.586,12.473,14.7733,,1242.586,79.058,86.0609,,1242.586,15.777,0.171661,17.1661,