File: public_html/data/backup/plexiglas_WH17.csv
wavelength_nm,intensity,intensity_smoothed,,wavelength_nm2,intensity_i0,intensity_i0_smoothed,,wavelength_nm3,,transmission,transmission_perc,transmission_perc_smoothed
173.232,39.353,#N/A,,173.232,26.786,#N/A,,173.232,146.916,#N/A,#N/A,#N/A
181.961,53.136,54.2678,,181.961,33.965,34.9026,,181.961,156.443,1.55483,155.483,#N/A
190.691,52.222,51.9507,,190.691,35.688,38.888,,190.691,146.329,1.3359,133.59,141.572
199.421,52.216,53.8239,,199.421,32.139,33.6557,,199.421,162.469,1.59925,159.925,148.271
208.15,52.119,55.2592,,208.15,34.68,34.8943,,208.15,150.285,1.58362,158.362,155.316
216.88,50.477,53.0087,,216.88,34.676,31.8467,,216.88,145.568,1.6645,166.45,158.453
225.609,51.47,48.3217,,225.609,40.217,36.1784,,225.609,127.981,1.33565,133.565,148.821
234.339,46.737,50.1711,,234.339,34.304,34.4358,,234.339,136.244,1.45695,145.695,141.558
243.069,67.367,65.5992,,243.069,60.39,48.2331,,243.069,111.553,1.36005,136.005,155.509
251.798,81.996,80.1145,,251.798,78.022,73.4829,,251.798,105.093,1.09025,109.025,118.18
260.443,79.171,82.7762,,260.443,84.199,83.7208,,260.443,94.0284,0.988717,98.8717,103.776
269.106,81.619,81.1355,,269.106,81.376,82.2561,,269.106,100.299,0.986377,98.6377,98.5257
277.794,89.702,85.7721,,277.794,82.28,82.0625,,277.794,109.02,1.0452,104.52,102.645
286.505,84.695,87.3626,,286.505,90.184,87.6258,,286.505,93.9136,0.996996,99.6996,103.166
295.239,91.232,86.9591,,295.239,83.452,86.6223,,295.239,109.323,1.00389,100.389,98.6531
303.998,90.952,87.8419,,303.998,88.174,86.6902,,303.998,103.151,1.01329,101.329,102.985
312.78,85.852,87.2295,,312.78,89.35,86.5034,,312.78,96.0851,1.00839,100.839,103.487
321.587,88.844,92.4384,,321.587,85.253,85.7733,,321.587,104.212,1.0777,107.77,106.192
330.417,95.108,93.917,,330.417,96.156,90.4288,,330.417,98.9101,1.03857,103.857,105.961
339.27,100.553,100.013,,339.27,88.514,89.3155,,339.27,113.601,1.11977,111.977,105.779
348.148,108.674,104.047,,348.148,93.362,93.4311,,348.148,116.401,1.11363,111.363,111.671
357.048,116.807,110.794,,357.048,92.684,93.1377,,357.048,126.027,1.18957,118.957,116.211
365.973,120.926,124.546,,365.973,104.471,100.243,,365.973,115.751,1.24244,124.244,124.652
374.921,144.081,138.889,,374.921,105.923,103.86,,374.921,136.024,1.33728,133.728,126.989
383.893,168.151,159.845,,383.893,113.574,112.156,,383.893,148.054,1.4252,142.52,138.575
392.888,63985.362,47053.7,,392.888,138.54,127.014,,392.888,46185.5,370.461,37046.1,10470.1
401.906,64000,63476.2,,401.906,334.594,250.877,,401.906,19127.7,253.017,25301.7,35167.4
410.948,64000,63983.8,,410.948,1758.437,1138.44,,410.948,3639.6,56.2033,5620.33,14405.5
420.014,64000,63999.5,,420.014,9137.17,6168.31,,420.014,700.436,10.3755,1037.55,2830.57
429.102,62535.117,62837.6,,429.102,30647.898,23061.4,,429.102,204.044,2.7248,272.48,577.567
438.214,64000,63892.6,,438.214,64000,56358.9,,438.214,100,1.13367,113.367,180.484
447.35,61643.611,62828.3,,447.35,60761.932,62468.2,,447.35,101.451,1.00576,100.576,104.188
456.508,58899.059,59405.7,,456.508,27838.543,37122.1,,456.508,211.574,1.60028,160.028,119.325
465.69,37734.049,46187.2,,465.69,12596.146,16509,,465.69,299.568,2.7977,279.77,225.21
474.895,19875.504,23981.4,,474.895,6668.058,8047.41,,474.895,298.07,2.98001,298.001,292.186
484.123,15282.875,16135.6,,484.123,5160.507,5444.05,,484.123,296.151,2.9639,296.39,297.276
493.374,20531.72,18259.3,,493.374,6970.285,6189.83,,493.374,294.561,2.94989,294.989,295.714
502.649,34261.381,29778.7,,502.649,11773.899,10193.6,,502.649,290.994,2.92132,292.132,293.947
511.946,48569.067,44523,,511.946,17373.417,15713.3,,511.946,279.56,2.83347,283.347,288.606
521.266,57175.429,55009.3,,521.266,21472.576,20371.4,,521.266,266.272,2.70032,270.032,276.807
530.61,59220.008,58985.9,,530.61,23420.502,22992.8,,530.61,252.855,2.5654,256.54,263.313
539.976,58503.559,58587.5,,539.976,23489.581,23508.8,,539.976,249.062,2.49215,249.215,252.197
549.365,58820.06,58760.8,,549.365,22873.453,23102.2,,549.365,257.154,2.54351,254.351,251.037
558.777,57406.232,57995.2,,558.777,21786.544,22154.5,,558.777,263.494,2.61776,261.776,258.276
568.212,54005.646,55142.9,,568.212,20287.739,20787.2,,568.212,266.198,2.65273,265.273,263.593
577.67,49551.346,50963.7,,577.67,18510.226,19068,,577.67,267.697,2.67273,267.273,266.376
587.151,44389.387,46006.4,,587.151,16543.598,17160.6,,587.151,268.318,2.68094,268.094,267.679
596.654,38724.966,40463.1,,596.654,14396.623,15056.5,,596.654,268.986,2.68742,268.742,268.492
606.18,32695.688,34504,,606.18,12197.964,12856.3,,606.18,268.042,2.68382,268.382,268.609
615.729,26958.575,28672.7,,615.729,10058.86,10678.5,,615.729,268.008,2.6851,268.51,268.506
625.3,21769.508,23237.3,,625.3,8130.117,8667.67,,625.3,267.764,2.68091,268.091,268.223
634.895,17245.199,18605.6,,634.895,6437.347,6930.48,,634.895,267.893,2.6846,268.46,268.678
644.511,13244.857,14402.8,,644.511,5039.689,5442.77,,644.511,262.811,2.64623,264.623,266.846
654.15,10090.222,11005.3,,654.15,3879.887,4212.17,,654.15,260.065,2.61274,261.274,263.033
663.812,7545.378,8265.68,,663.812,2903.757,3185.45,,663.812,259.849,2.59482,259.482,260.345
673.496,5567.362,6134.58,,673.496,2177.624,2385.3,,673.496,255.662,2.57183,257.183,258.582
683.203,4068.533,4502.02,,683.203,1629.665,1789.43,,683.203,249.655,2.51589,251.589,254.789
692.932,2979.07,3292.91,,692.932,1205.908,1326.76,,692.932,247.04,2.48191,248.191,250.076
702.683,2148.634,2384.66,,702.683,890.997,976.474,,702.683,241.149,2.44211,244.211,246.885
712.457,1552.032,1724.05,,712.457,662.098,731.816,,712.457,234.411,2.35585,235.585,240.326
722.253,1097.793,1227.42,,722.253,492.698,539.006,,722.253,222.813,2.27719,227.719,232.167
732.071,794.528,882.173,,732.071,368.083,402.635,,732.071,215.856,2.191,219.1,223.332
741.912,597.517,651.953,,741.912,284.041,311.713,,741.912,210.363,2.09151,209.151,213.77
751.775,457.303,495.702,,751.775,237.1,248.653,,751.775,192.873,1.99355,199.355,204.261
761.66,353.36,379.743,,761.66,194.555,206.569,,761.66,181.625,1.83833,183.833,190.154
771.567,268.185,290.025,,771.567,163.64,176.077,,771.567,163.887,1.64715,164.715,174.479
781.496,219.616,236.006,,781.496,140.7,149.314,,781.496,156.088,1.5806,158.06,162.01
791.448,177.286,188.014,,791.448,132.187,137.25,,791.448,134.118,1.36986,136.986,147.274
801.421,157.694,163.473,,801.421,125.872,125.831,,801.421,125.281,1.29915,129.915,134.078
811.416,161.126,159.029,,811.416,124.855,122.025,,811.416,129.05,1.30325,130.325,128.86
821.434,217.204,198.433,,821.434,141.814,134.579,,821.434,153.161,1.47447,147.447,137.406
831.473,381.144,326.413,,831.473,210.594,188.501,,831.473,180.985,1.73163,173.163,159.09
841.534,719.154,560.612,,841.534,332.71,269.986,,841.534,216.15,2.07644,207.644,190.983
851.617,1814.781,1466.29,,851.617,770.317,633.325,,851.617,235.589,2.31522,231.522,220.544
861.722,2733.947,2507.13,,861.722,1129.608,1039.28,,861.722,242.026,2.41236,241.236,236.61
871.849,3334.641,3115,,871.849,1369.33,1283.25,,871.849,243.524,2.42744,242.744,241.834
881.998,4636.755,4211.97,,881.998,1894.555,1728.37,,881.998,244.741,2.43696,243.696,243.237
892.168,5332.154,5248.06,,892.168,2167.414,2133.41,,892.168,246.015,2.45994,245.994,245.373
902.36,4125.489,4561.16,,902.36,1687.304,1860.3,,902.36,244.502,2.45184,245.184,245.597
912.574,2709.603,3106.6,,912.574,1116.511,1277.41,,912.574,242.685,2.43196,243.196,244.261
922.809,1836.55,2074.39,,922.809,778.594,868.159,,922.809,235.88,2.38941,238.941,241.032
933.066,1202.032,1383.08,,933.066,526.489,595.013,,933.066,228.311,2.32446,232.446,235.327
943.345,805.321,912.124,,943.345,364.376,409.241,,943.345,221.014,2.22882,222.882,228.052
953.645,616.778,664.389,,953.645,288.345,308.804,,953.645,213.903,2.15149,215.149,217.926
963.966,518.222,542.496,,963.966,254.941,261.316,,963.966,203.271,2.07601,207.601,210.576
974.31,502.65,505.542,,974.31,250.162,247.567,,974.31,200.93,2.04204,204.204,205.417
984.674,589.153,553.898,,984.674,275.919,265.785,,984.674,213.524,2.08401,208.401,203.572
995.06,716.001,671.773,,995.06,334.117,312.552,,995.06,214.296,2.14931,214.931,212.423
1005.467,879.102,819.383,,1005.467,392.301,371.571,,1005.467,224.089,2.20518,220.518,216.416
1015.896,1231.908,1108.06,,1015.896,527.561,479.986,,1015.896,233.51,2.30852,230.852,225.005
1026.346,1688.871,1568.64,,1026.346,708.896,662.723,,1026.346,238.24,2.36696,236.696,233.607
1036.817,1864.626,1825.47,,1036.817,784.121,766.641,,1036.817,237.798,2.38113,238.113,238.223
1047.31,1909.624,1905.47,,1047.31,791.053,789.481,,1047.31,241.403,2.41358,241.358,239.753
1057.823,1886.589,1902.32,,1057.823,784.782,786.688,,1057.823,240.397,2.41813,241.813,241.803
1068.358,1826.338,1851.77,,1068.358,746.577,758.991,,1068.358,244.628,2.43978,243.978,242.347
1078.914,1749.866,1774.57,,1078.914,718.983,727.046,,1078.914,243.381,2.44079,244.079,244.081
1089.491,1677.078,1693.22,,1089.491,680.268,686.215,,1089.491,246.532,2.46748,246.748,245.269
1100.042,1599.609,1625.46,,1100.042,648.432,654.815,,1100.042,246.689,2.48232,248.232,248.128
1110.472,1499.545,1531.19,,1110.472,594.744,610.059,,1110.472,252.133,2.50991,250.991,248.304
1120.902,1374.247,1416.4,,1120.902,545.02,565.139,,1120.902,252.146,2.50628,250.628,250.258
1131.332,1261.53,1293.33,,1131.332,500.167,513.641,,1131.332,252.222,2.51796,251.796,251.287
1141.762,1101.029,1146.19,,1141.762,435.458,452.103,,1141.762,252.844,2.53525,253.525,252.853
1152.192,976.561,1012.22,,1152.192,381.618,401.382,,1152.192,255.9,2.52183,252.183,252.452
1162.622,855.127,893.957,,1162.622,334.467,347.231,,1162.622,255.669,2.57453,257.453,254.577
1173.052,754.822,779.458,,1173.052,298.098,309.96,,1173.052,253.213,2.51471,251.471,254.394
1183.482,659.563,685.482,,1183.482,258.334,266.759,,1183.482,255.314,2.56966,256.966,253.25
1193.912,570.452,596.706,,1193.912,226.821,239.129,,1193.912,251.499,2.49533,249.533,252.314
1204.342,528.144,540.821,,1204.342,223.842,225.218,,1204.342,235.945,2.40133,240.133,248.587
1214.773,451.57,478.628,,1214.773,195.595,206.08,,1214.773,230.87,2.32254,232.254,236.786
1225.203,307.396,345.393,,1225.203,125.828,148.028,,1225.203,244.299,2.33329,233.329,230.939
1235.633,219.929,244.561,,1235.633,95.926,102.941,,1235.633,229.269,2.37574,237.574,239.644
1242.586,190.629,203.118,,1242.586,79.058,86.0609,,1242.586,241.126,2.36017,236.017,