File: public_html/data/backup/plexiglas_2C01.csv
wavelength_nm,intensity,intensity_smoothed,,wavelength_nm2,intensity_i0,intensity_i0_smoothed,,wavelength_nm3,,transmission,transmission_perc,transmission_perc_smoothed
173.232,14.943,#N/A,,173.232,26.786,#N/A,,173.232,55.7866,#N/A,#N/A,#N/A
182.226,17.124,15.8688,,182.226,35.237,34.8089,,182.226,48.5966,0.455885,45.5885,#N/A
191.22,15.214,16.9435,,191.22,34.688,38.2618,,191.22,43.8595,0.442831,44.2831,42.9508
200.214,14.485,17.268,,200.214,34.593,33.7256,,200.214,41.8726,0.512015,51.2015,51.2677
209.208,19.303,18.1975,,209.208,39.771,35.6535,,209.208,48.5354,0.510398,51.0398,46.1213
218.203,18.301,20.5864,,218.203,37.039,33.577,,218.203,49.4101,0.61311,61.311,55.4927
227.197,14.755,13.8112,,227.197,37.035,37.3027,,227.197,39.8407,0.370248,37.0248,50.7393
236.191,14.39,14.9872,,236.191,27.485,31.4748,,236.191,52.3558,0.476165,47.6165,42.09
245.185,33.661,29.7743,,245.185,63.117,56.0939,,245.185,53.3311,0.530794,53.0794,51.4354
254.158,44.478,43.2559,,254.158,77.748,75.9505,,254.158,57.2079,0.569528,56.9528,55.0454
263.066,49.659,48.8743,,263.066,83.107,83.5233,,263.066,59.7531,0.585157,58.5157,57.0352
271.999,49.748,46.9151,,271.999,80.375,82.205,,271.999,61.8949,0.570708,57.0708,56.9579
280.958,44.474,46.3211,,280.958,85.279,82.4355,,280.958,52.1512,0.561907,56.1907,58.3011
289.943,48.836,49.7835,,289.943,89.91,87.607,,289.943,54.3165,0.56826,56.826,54.5924
298.952,52.017,50.5146,,298.952,84.904,83.8708,,298.952,61.2657,0.60229,60.229,58.2094
307.987,42.47,46.4706,,307.987,79.807,85.0579,,307.987,53.2159,0.546341,54.6341,58.0593
317.047,47.923,44.6406,,317.047,83.347,85.6554,,317.047,57.4982,0.521165,52.1165,54.1452
326.132,51.739,50.6466,,326.132,84.341,86.2212,,326.132,61.345,0.587402,58.7402,54.0576
335.243,53.92,51.2926,,335.243,93.698,90.7122,,335.243,57.5466,0.565443,56.5443,57.7435
344.379,54.1,52.69,,344.379,90.874,88.2733,,344.379,59.533,0.596897,59.6897,58.0328
353.539,50.511,52.78,,353.539,93.625,92.69,,353.539,53.9503,0.569426,56.9426,57.9469
362.725,58.784,54.2691,,362.725,93.62,95.0673,,362.725,62.79,0.570849,57.0849,57.7879
371.936,52.918,55.567,,371.936,104.25,101.025,,371.936,50.7607,0.550035,55.0035,57.3848
381.171,63.983,62.0412,,381.171,112.399,109.069,,381.171,56.9249,0.568825,56.8825,56.087
390.432,72.869,66.9131,,390.432,126.82,117.99,,390.432,57.4586,0.56711,56.711,56.2635
399.718,181.955,136.655,,399.718,255.638,197.26,,399.718,71.1768,0.692769,69.2769,62.3858
409.028,1038.404,668.032,,409.028,1209.068,790.336,,409.028,85.8847,0.845251,84.5251,77.7273
418.364,5669.084,3863.6,,418.364,6943.145,4622.08,,418.364,81.6501,0.8359,83.59,85.3048
427.724,17657.561,13624.2,,427.724,26342.847,19491.6,,427.724,67.0298,0.698978,69.8978,76.9907
437.108,40371.415,32960,,437.108,63776.327,52378.6,,437.108,63.3016,0.629264,62.9264,65.7334
446.518,33990.875,40965.3,,446.518,61778.432,62848.5,,446.518,55.0206,0.65181,65.181,67.5575
455.952,6699.86,11948.8,,455.952,29348.811,39040.2,,455.952,22.8284,0.306063,30.6063,46.2357
465.411,3255.761,3981.72,,465.411,12896.067,16910.4,,465.411,25.2462,0.23546,23.546,25.0861
474.895,1242.5,1862.03,,474.895,6668.058,8047.41,,474.895,18.6336,0.231383,23.1383,24.799
484.403,219.391,407.687,,484.403,5161.596,5415.69,,484.403,4.25045,0.0752788,7.52788,15.103
493.936,232.511,191.93,,493.936,7190.779,6348.99,,493.936,3.23346,0.03023,3.023,4.42238
503.493,1536.397,1074.17,,503.493,12295.73,10671.8,,503.493,12.4954,0.100654,10.0654,5.66194
513.074,879.985,1239.43,,513.074,17987.804,16371.3,,513.074,4.89212,0.0757071,7.57071,10.5166
522.681,314.359,372.769,,522.681,21946.814,20907.2,,522.681,1.43237,0.0178297,1.78297,3.95443
532.311,894.5,624.511,,532.311,23496.634,23215.1,,532.311,3.80693,0.0269011,2.69011,1.91683
541.966,9652.216,5877.12,,541.966,23404.455,23474.1,,541.966,41.2409,0.250366,25.0366,9.87546
551.645,21586.134,19144.5,,551.645,22620.916,22902.4,,551.645,95.4256,0.835915,83.5915,55.6787
561.348,22781.255,22653.2,,561.348,21446.354,21819.4,,561.348,106.224,1.03821,103.821,96.0798
571.076,22081.857,22366,,571.076,19752.474,20281.2,,571.076,111.793,1.1028,110.28,107.245
580.828,20108.938,20810.9,,580.828,17905.662,18453.6,,580.828,112.305,1.12774,112.774,112.026
590.604,17176.884,18068.3,,590.604,15779.739,16404.7,,590.604,108.854,1.10141,110.141,111.684
600.404,14382.791,15194.4,,600.404,13544.34,14207.5,,600.404,106.19,1.06946,106.946,108.43
610.229,11887.026,12587.4,,610.229,11237.642,11910.8,,610.229,105.779,1.05681,105.681,106.094
620.077,9660.138,10311.5,,620.077,9110.589,9742.29,,620.077,106.032,1.05843,105.843,105.714
629.949,7713.596,8285.75,,629.949,7253.439,7787.88,,629.949,106.344,1.06393,106.393,106.183
639.846,5983.96,6485.2,,639.846,5684.101,6127.03,,639.846,105.275,1.05846,105.846,106.222
649.766,4536.861,4947.03,,649.766,4369.577,4738.13,,649.766,103.828,1.04409,104.409,105.116
659.71,3382.278,3719.11,,659.71,3288.685,3591.12,,659.71,102.846,1.03564,103.564,103.843
669.678,2503.801,2748.12,,669.678,2442.874,2674.65,,669.678,102.494,1.02747,102.747,103.084
679.67,1843.07,2020.94,,679.67,1818.585,1987.78,,679.67,101.346,1.01669,101.669,102.17
689.686,1344.989,1479.43,,689.686,1333.341,1461.62,,689.686,100.874,1.01218,101.218,101.357
699.726,965.45,1072.47,,699.726,971.408,1066.88,,699.726,99.3867,1.00524,100.524,100.938
709.789,709.019,778.71,,709.789,725.356,789.904,,709.789,97.7477,0.985829,98.5829,99.3332
719.876,500.175,556.086,,719.876,528.67,580.262,,719.876,94.6101,0.958337,95.8337,97.4341
729.987,367.965,405.485,,729.987,392.852,429.075,,729.987,93.665,0.945022,94.5022,95.1509
740.121,267.893,292.291,,740.121,301.501,327.788,,740.121,88.8531,0.891707,89.1707,91.8599
750.279,211.35,226.044,,750.279,240.537,254.717,,750.279,87.8659,0.887432,88.7432,89.0976
760.46,162.036,176.85,,760.46,198.468,211.289,,760.46,81.6434,0.837006,83.7006,85.683
770.665,132.353,138.79,,770.665,168.205,179.624,,770.665,78.6855,0.772666,77.2666,79.9677
780.894,108.404,110.77,,780.894,141.966,151.239,,780.894,76.3591,0.732421,73.2421,77.2404
791.146,98.765,98.5751,,791.146,132.738,137.751,,791.146,74.406,0.715602,71.5602,72.7383
801.421,82.377,84.2781,,801.421,125.872,125.831,,801.421,65.4451,0.669773,66.9773,70.1574
811.72,85.307,85.4057,,811.72,122.787,122.308,,811.72,69.4756,0.698283,69.8283,67.7628
822.042,111.747,96.788,,822.042,143.609,135.905,,822.042,77.8134,0.712172,71.2172,69.0547
832.387,163.9,146.579,,832.387,213.119,194.586,,832.387,76.9054,0.753285,75.3285,74.536
842.755,280.78,224.988,,842.755,374.652,296.792,,842.755,74.9442,0.758067,75.8067,76.3401
853.147,584.038,496.581,,853.147,839.505,701.563,,853.147,69.5693,0.70782,70.782,73.1852
863.562,749.236,708.84,,863.562,1167.416,1089.33,,863.562,64.179,0.650713,65.0713,67.6252
874,905.115,844.763,,874,1458.677,1350.71,,874,62.0504,0.625421,62.5421,63.7885
884.461,1152.481,1095.75,,884.461,2008.756,1856.17,,884.461,57.3729,0.590331,59.0331,61.1404
894.946,926.839,1030.68,,894.946,2096.312,2136.09,,894.946,44.2128,0.482509,48.2509,54.1001
905.453,465.181,581.381,,905.453,1501.394,1682.34,,905.453,30.9833,0.345578,34.5578,41.1409
915.983,241.2,292.032,,915.983,988.66,1118.11,,915.983,24.3967,0.261183,26.1183,29.8589
926.537,185.445,195.603,,926.537,680.557,763.298,,926.537,27.249,0.256261,25.6261,25.2293
937.113,140.87,154.972,,937.113,451.536,508.519,,937.113,31.198,0.304751,30.4751,27.9658
947.712,102.656,116.931,,947.712,329.143,359.08,,947.712,31.1889,0.325642,32.5642,32.41
958.334,66.167,76.0427,,958.334,270.377,284.768,,958.334,24.4721,0.267034,26.7034,29.8221
968.979,56.13,59.0611,,968.979,245.6,250.203,,968.979,22.8542,0.236053,23.6053,24.0287
979.646,53.998,51.3534,,979.646,261.812,255.071,,979.646,20.6247,0.201329,20.1329,21.8212
990.336,58.046,58.499,,990.336,304.103,287.506,,990.336,19.0876,0.203471,20.3471,20.3753
1001.049,68.816,62.8602,,1001.049,360.561,344.59,,1001.049,19.0858,0.18242,18.242,18.8831
1011.785,102.855,94.8689,,1011.785,460.821,427.638,,1011.785,22.3199,0.221844,22.1844,20.0858
1022.543,100.617,111.138,,1022.543,661.52,601.668,,1022.543,15.21,0.184716,18.4716,20.8897
1033.324,76.556,84.1083,,1033.324,766.018,742.532,,1033.324,9.99402,0.113272,11.3272,14.5901
1044.128,60.399,67.1665,,1044.128,790.858,786.687,,1044.128,7.63715,0.085379,8.5379,9.43884
1054.954,68.962,63.4132,,1054.954,785.495,789.002,,1054.954,8.77943,0.0803714,8.03714,7.98892
1065.802,77.246,72.759,,1065.802,755.742,768.407,,1065.802,10.2212,0.0946881,9.46881,8.75932
1076.673,126.341,105.993,,1076.673,725.053,733.084,,1076.673,17.4251,0.144585,14.4585,11.3741
1087.567,304.701,240.85,,1087.567,681.516,691.466,,1087.567,44.7093,0.348318,34.8318,22.9519
1098.461,502.78,454.658,,1098.461,651.492,658.739,,1098.461,77.1736,0.690194,69.0194,52.2939
1109.207,556.758,549.043,,1109.207,600.16,617.068,,1109.207,92.7683,0.889762,88.9762,80.0995
1119.954,529.544,539.802,,1119.954,551.335,571.208,,1119.954,96.0476,0.945018,94.5018,92.5364
1130.7,491.592,500.857,,1130.7,503.471,516.163,,1130.7,97.6406,0.970346,97.0346,96.1758
1141.446,443.175,456.43,,1141.446,436.474,453.839,,1141.446,101.535,1.00571,100.571,98.7393
1152.192,396.928,407.892,,1152.192,381.618,401.382,,1152.192,104.012,1.01622,101.622,100.909
1162.938,339.762,357.505,,1162.938,332.811,345.955,,1162.938,102.089,1.03339,103.339,103.497
1173.684,291.04,306.622,,1173.684,295.239,307.404,,1173.684,98.5778,0.997457,99.7457,101.797
1184.43,249.854,261.176,,1184.43,255.181,264.288,,1184.43,97.9125,0.988224,98.8224,98.6591
1195.177,200.026,213.868,,1195.177,220.372,233.904,,1195.177,90.7674,0.914341,91.4341,95.0015
1205.923,177.741,188.517,,1205.923,216.735,224.26,,1205.923,82.0084,0.840619,84.0619,88.2336
1216.669,156.913,170.514,,1216.669,185.106,198.968,,1216.669,84.7693,0.856995,85.6995,84.2357
1227.415,106.366,119.222,,1227.415,116.599,134.267,,1227.415,91.2238,0.887947,88.7947,87.5529
1238.161,83.015,89.9009,,1238.161,88.33,97.3703,,1238.161,93.9828,0.923289,92.3289,90.6406
1242.586,71.16,78.2033,,1242.586,79.058,86.0609,,1242.586,90.0099,0.908698,90.8698,