File: public_html/data/backup/plexiglas_2C04.csv
wavelength_nm,intensity,intensity_smoothed,,wavelength_nm2,intensity_i0,intensity_i0_smoothed,,wavelength_nm3,,transmission,transmission_perc,transmission_perc_smoothed
173.232,12.691,#N/A,,173.232,26.786,#N/A,,173.232,47.3792,#N/A,#N/A,#N/A
182.226,12.31,12.6292,,182.226,35.237,34.8089,,182.226,34.9349,0.362815,36.2815,#N/A
191.22,17.216,18.1664,,191.22,34.688,38.2618,,191.22,49.631,0.474792,47.4792,43.8243
200.214,15.032,15.4323,,200.214,34.593,33.7256,,200.214,43.4539,0.457585,45.7585,45.43
209.208,16.029,16.6865,,209.208,39.771,35.6535,,209.208,40.3032,0.468019,46.8019,49.9712
218.203,16.39,16.5626,,218.203,37.039,33.577,,218.203,44.2507,0.493273,49.3273,45.3859
227.197,18.205,15.0695,,227.197,37.035,37.3027,,227.197,49.1562,0.40398,40.398,43.875
236.191,15.838,13.8446,,236.191,27.485,31.4748,,236.191,57.6242,0.439862,43.9862,44.2163
245.185,27.654,24.3508,,245.185,63.117,56.0939,,245.185,43.8139,0.434109,43.4109,49.987
254.158,31.65,30.9367,,254.158,77.748,75.9505,,254.158,40.7084,0.407327,40.7327,43.3298
263.066,35.193,36.1281,,263.066,83.107,83.5233,,263.066,42.3466,0.432551,43.2551,42.731
271.999,36.644,35.773,,271.999,80.375,82.205,,271.999,45.5913,0.435168,43.5168,43.0216
280.958,35.277,36.6613,,280.958,85.279,82.4355,,280.958,41.3666,0.444727,44.4727,43.7459
289.943,35.182,35.427,,289.943,89.91,87.607,,289.943,39.1302,0.404385,40.4385,40.3015
298.952,32.906,33.5437,,298.952,84.904,83.8708,,298.952,38.7567,0.399945,39.9945,40.2757
307.987,32.447,33.3786,,307.987,79.807,85.0579,,307.987,40.6568,0.392422,39.2422,39.4033
317.047,30.534,32.6036,,317.047,83.347,85.6554,,317.047,36.6348,0.380637,38.0637,39.5051
326.132,33.076,34.8266,,326.132,84.341,86.2212,,326.132,39.217,0.403922,40.3922,39.5435
335.243,38.163,34.2087,,335.243,93.698,90.7122,,335.243,40.7298,0.377112,37.7112,37.2966
344.379,26.431,33.5091,,344.379,90.874,88.2733,,344.379,29.0853,0.379606,37.9606,40.2807
353.539,35.786,35.0932,,353.539,93.625,92.69,,353.539,38.2227,0.378608,37.8608,36.9098
362.725,44.352,44.2384,,362.725,93.62,95.0673,,362.725,47.3745,0.465337,46.5337,43.8975
371.936,42.462,42.6153,,371.936,104.25,101.025,,371.936,40.7309,0.421831,42.1831,43.256
381.171,37.677,41.4662,,381.171,112.399,109.069,,381.171,33.5208,0.380184,38.0184,40.0448
390.432,36.288,36.3992,,390.432,126.82,117.99,,390.432,28.6138,0.308495,30.8495,33.2929
399.718,35.248,40.1309,,399.718,255.638,197.26,,399.718,13.7882,0.203442,20.3442,27.6302
409.028,43.69,42.853,,409.028,1209.068,790.336,,409.028,3.61353,0.0542212,5.42212,12.2154
418.364,50.955,45.9436,,418.364,6943.145,4622.08,,418.364,0.733889,0.00994003,0.994003,2.60444
427.724,37.278,42.5538,,427.724,26342.847,19491.6,,427.724,0.141511,0.00218319,0.218319,0.506322
437.108,46.96,45.783,,437.108,63776.327,52378.6,,437.108,0.0736323,0.000874079,0.0874079,0.134236
446.518,38.913,42.6357,,446.518,61778.432,62848.5,,446.518,0.062988,0.000678388,0.0678388,0.0747064
455.952,41.938,43.0443,,455.952,29348.811,39040.2,,455.952,0.142895,0.00110256,0.110256,0.0774901
465.411,38.133,38.2315,,465.411,12896.067,16910.4,,465.411,0.295695,0.00226082,0.226082,0.166806
474.895,43.292,40.6413,,474.895,6668.058,8047.41,,474.895,0.649245,0.00505024,0.505024,0.344054
484.403,41.124,40.219,,484.403,5161.596,5415.69,,484.403,0.79673,0.00742638,0.742638,0.65239
493.936,42.201,44.2975,,493.936,7190.779,6348.99,,493.936,0.586877,0.00697709,0.697709,0.781525
503.493,44.521,46.1028,,503.493,12295.73,10671.8,,503.493,0.362085,0.00432004,0.432004,0.563583
513.074,47.081,44.4144,,513.074,17987.804,16371.3,,513.074,0.261738,0.00271294,0.271294,0.326168
522.681,46.907,44.5522,,522.681,21946.814,20907.2,,522.681,0.21373,0.00213095,0.213095,0.243851
532.311,208.195,123.366,,532.311,23496.634,23215.1,,532.311,0.886063,0.00531404,0.531404,0.300262
541.966,2359.119,1444.11,,541.966,23404.455,23474.1,,541.966,10.0798,0.0615192,6.15192,2.43267
551.645,8187.414,6402.74,,551.645,22620.916,22902.4,,551.645,36.194,0.279566,27.9566,15.8921
561.348,13003.818,11795.8,,561.348,21446.354,21819.4,,561.348,60.6342,0.540612,54.0612,41.4407
571.076,15025.195,14588.1,,571.076,19752.474,20281.2,,571.076,76.0674,0.719294,71.9294,63.6332
580.828,15293.87,15301.9,,580.828,17905.662,18453.6,,580.828,85.4136,0.829207,82.9207,77.8555
590.604,14456.256,14755.7,,590.604,15779.739,16404.7,,590.604,91.6128,0.899485,89.9485,86.6752
600.404,12960.097,13439.5,,600.404,13544.34,14207.5,,600.404,95.6864,0.945947,94.5947,92.52
610.229,11043.504,11609.5,,610.229,11237.642,11910.8,,610.229,98.2724,0.974705,97.4705,96.0863
620.077,9044.13,9641.56,,620.077,9110.589,9742.29,,620.077,99.2705,0.98966,98.966,98.3647
629.949,7270.849,7798.31,,629.949,7253.439,7787.88,,629.949,100.24,1.00134,100.134,99.6976
639.846,5698.528,6158.9,,639.846,5684.101,6127.03,,639.846,100.254,1.0052,100.52,100.368
649.766,4381.925,4758.58,,649.766,4369.577,4738.13,,649.766,100.283,1.00432,100.432,100.43
659.71,3282.953,3589.81,,659.71,3288.685,3591.12,,659.71,99.8257,0.999633,99.9633,100.06
669.678,2426.082,2667.61,,669.678,2442.874,2674.65,,669.678,99.3126,0.997368,99.7368,99.8854
679.67,1793.271,1970.76,,679.67,1818.585,1987.78,,679.67,98.608,0.991441,99.1441,99.5017
689.686,1303.229,1433.54,,689.686,1333.341,1461.62,,689.686,97.7416,0.980788,98.0788,98.4611
699.726,938.094,1037.16,,699.726,971.408,1066.88,,699.726,96.5705,0.972142,97.2142,97.5979
709.789,677.66,749.39,,709.789,725.356,789.904,,709.789,93.4245,0.94871,94.871,96.1833
719.876,481.238,533.069,,719.876,528.67,580.262,,719.876,91.0281,0.91867,91.867,93.259
729.987,348.464,383.838,,729.987,392.852,429.075,,729.987,88.7011,0.894571,89.4571,90.6546
740.121,255.134,278.925,,740.121,301.501,327.788,,740.121,84.6213,0.850933,85.0933,87.7893
750.279,195.373,213.406,,750.279,240.537,254.717,,750.279,81.2237,0.837815,83.7815,84.6655
760.46,140.23,159.225,,760.46,198.468,211.289,,760.46,70.6562,0.75359,75.359,79.0559
770.665,115.106,122.585,,770.665,168.205,179.624,,770.665,68.432,0.68245,68.245,71.9164
780.894,88.897,100.949,,780.894,141.966,151.239,,780.894,62.6185,0.667482,66.7482,68.7852
791.146,80.244,84.5279,,791.146,132.738,137.751,,791.146,60.4529,0.613627,61.3627,63.3813
801.421,71.637,69.6261,,801.421,125.872,125.831,,801.421,56.9126,0.553331,55.3331,58.0857
811.72,70.41,63.9274,,811.72,122.787,122.308,,811.72,57.3432,0.522674,52.2674,54.2103
822.042,60.923,58.0211,,822.042,143.609,135.905,,822.042,42.4228,0.426923,42.6923,49.3882
832.387,50.011,54.1072,,832.387,213.119,194.586,,832.387,23.4662,0.278063,27.8063,35.681
842.755,47.304,48.8184,,842.755,374.652,296.792,,842.755,12.6261,0.164487,16.4487,21.9213
853.147,54.924,58.4666,,853.147,839.505,701.563,,853.147,6.54243,0.0833375,8.33375,11.3294
863.562,43.63,47.6179,,863.562,1167.416,1089.33,,863.562,3.73731,0.0437131,4.37131,5.85084
874,32.49,35.5334,,874,1458.677,1350.71,,874,2.22736,0.0263072,2.63072,3.42226
884.461,32.75,31.1973,,884.461,2008.756,1856.17,,884.461,1.63036,0.0168074,1.68074,2.14867
894.946,38.076,33.7132,,894.946,2096.312,2136.09,,894.946,1.81633,0.0157827,1.57827,1.61862
905.453,38.28,38.1636,,905.453,1501.394,1682.34,,905.453,2.54963,0.0226848,2.26848,1.94694
915.983,37.046,38.8375,,915.983,988.66,1118.11,,915.983,3.74709,0.0347349,3.47349,2.85064
926.537,42.977,39.4596,,926.537,680.557,763.298,,926.537,6.31497,0.0516962,5.16962,4.21824
937.113,40.085,38.514,,937.113,451.536,508.519,,937.113,8.87748,0.0757376,7.57376,6.14794
947.712,36.641,38.6466,,947.712,329.143,359.08,,947.712,11.1322,0.107627,10.7627,9.68095
958.334,42.463,40.6395,,958.334,270.377,284.768,,958.334,15.7051,0.142711,14.2711,12.6123
968.979,45.552,42.2554,,968.979,245.6,250.203,,968.979,18.5472,0.168885,16.8885,15.3143
979.646,35.451,41.0786,,979.646,261.812,255.071,,979.646,13.5406,0.161048,16.1048,16.6498
990.336,41.432,41.9428,,990.336,304.103,287.506,,990.336,13.6243,0.145885,14.5885,15.0372
1001.049,40.313,41.0888,,1001.049,360.561,344.59,,1001.049,11.1806,0.11924,11.924,13.4643
1011.785,46.002,43.8548,,1011.785,460.821,427.638,,1011.785,9.98262,0.102551,10.2551,11.35
1022.543,50.407,47.9596,,1022.543,661.52,601.668,,1022.543,7.61988,0.0797111,7.97111,9.31222
1033.324,45.8,45.9281,,1033.324,766.018,742.532,,1033.324,5.97897,0.0618533,6.18533,6.85201
1044.128,46.815,46.334,,1044.128,790.858,786.687,,1044.128,5.91952,0.0588976,5.88976,6.04079
1054.954,46.724,49.0124,,1054.954,785.495,789.002,,1054.954,5.94835,0.0621195,6.21195,6.1258
1065.802,50.707,49.4576,,1065.802,755.742,768.407,,1065.802,6.70956,0.0643639,6.43639,6.29547
1076.673,71.126,62.1746,,1076.673,725.053,733.084,,1076.673,9.80977,0.0848123,8.48123,7.27498
1087.567,101.89,87.9743,,1087.567,681.516,691.466,,1087.567,14.9505,0.127229,12.7229,10.4121
1098.461,169.54,152.886,,1098.461,651.492,658.739,,1098.461,26.0233,0.232088,23.2088,17.6773
1109.207,240.076,222.116,,1109.207,600.16,617.068,,1109.207,40.002,0.359955,35.9955,29.2813
1119.954,280.042,271.267,,1119.954,551.335,571.208,,1119.954,50.7934,0.4749,47.49,41.8122
1130.7,298.253,296.837,,1130.7,503.471,516.163,,1130.7,59.2394,0.575083,57.5083,53.2363
1141.446,293.71,300.054,,1141.446,436.474,453.839,,1141.446,67.2915,0.661146,66.1146,61.7768
1152.192,280.775,287.728,,1152.192,381.618,401.382,,1152.192,73.5749,0.716844,71.6844,68.7089
1162.938,262.541,268.856,,1162.938,332.811,345.955,,1162.938,78.8859,0.777141,77.7141,74.4563
1173.684,231.281,240.66,,1173.684,295.239,307.404,,1173.684,78.3369,0.782878,78.2878,78.2027
1184.43,201.727,214.13,,1184.43,255.181,264.288,,1184.43,79.0525,0.810214,81.0214,79.3971
1195.177,164.793,177.623,,1195.177,220.372,233.904,,1195.177,74.7795,0.759387,75.9387,77.9698
1205.923,146.126,155.413,,1205.923,216.735,224.26,,1205.923,67.4215,0.693003,69.3003,74.0492
1216.669,113.647,120.822,,1216.669,185.106,198.968,,1216.669,61.3956,0.607245,60.7245,63.9055
1227.415,94.551,101.043,,1227.415,116.599,134.267,,1227.415,81.0907,0.75255,75.255,65.469
1238.161,69.311,74.4204,,1238.161,88.33,97.3703,,1238.161,78.4682,0.764303,76.4303,76.6487
1242.586,60.316,67.0215,,1242.586,79.058,86.0609,,1242.586,76.2934,0.778768,77.8768,