File: public_html/data/backup/plexiglas_3C01.csv
wavelength_nm,intensity,intensity_smoothed,,wavelength_nm2,intensity_i0,intensity_i0_smoothed,,wavelength_nm3,,transmission,transmission_perc,transmission_perc_smoothed
173.232,17.358,#N/A,,173.232,26.786,#N/A,,173.232,64.8025,#N/A,#N/A,#N/A
182.226,11.583,16.1766,,182.226,35.237,34.8089,,182.226,32.8717,0.464726,46.4726,#N/A
191.22,19.125,16.3033,,191.22,34.688,38.2618,,191.22,55.1343,0.426098,42.6098,36.8745
200.214,13.577,11.8764,,200.214,34.593,33.7256,,200.214,39.2478,0.352147,35.2147,45.2524
209.208,15.756,17.5161,,209.208,39.771,35.6535,,209.208,39.6168,0.491287,49.1287,47.1219
218.203,16.572,15.6699,,218.203,37.039,33.577,,218.203,44.742,0.466687,46.6687,43.2275
227.197,14.66,17.8163,,227.197,37.035,37.3027,,227.197,39.5842,0.477614,47.7614,49.0811
236.191,16.657,13.2026,,236.191,27.485,31.4748,,236.191,60.604,0.419464,41.9464,40.3413
245.185,14.017,16.5065,,245.185,63.117,56.0939,,245.185,22.208,0.294266,29.4266,37.0821
254.158,15.378,17.3406,,254.158,77.748,75.9505,,254.158,19.7793,0.228314,22.8314,25.8856
263.066,14.556,16.0398,,263.066,83.107,83.5233,,263.066,17.5148,0.19204,19.204,21.7884
271.999,18.826,17.928,,271.999,80.375,82.205,,271.999,23.4227,0.218089,21.8089,19.8981
280.958,15.368,16.48,,280.958,85.279,82.4355,,280.958,18.0208,0.199914,19.9914,22.2127
289.943,15.273,17.3544,,289.943,89.91,87.607,,289.943,16.987,0.198094,19.8094,21.103
298.952,18.451,17.8662,,298.952,84.904,83.8708,,298.952,21.7316,0.213021,21.3021,21.555
307.987,19.72,19.9677,,307.987,79.807,85.0579,,307.987,24.7096,0.234754,23.4754,22.2407
317.047,19.262,22.4715,,317.047,83.347,85.6554,,317.047,23.1106,0.262348,26.2348,26.7472
326.132,19.258,20.8473,,326.132,84.341,86.2212,,326.132,22.8335,0.241788,24.1788,25.0523
335.243,19.526,23.5676,,335.243,93.698,90.7122,,335.243,20.8393,0.259807,25.9807,24.2935
344.379,18.522,20.5624,,344.379,90.874,88.2733,,344.379,20.3821,0.23294,23.294,23.0865
353.539,16.584,19.1952,,353.539,93.625,92.69,,353.539,17.7132,0.20709,20.709,22.961
362.725,19.724,19.8636,,362.725,93.62,95.0673,,362.725,21.0681,0.208943,20.8943,19.3231
371.936,18.99,22.4731,,371.936,104.25,101.025,,371.936,18.2158,0.222452,22.2452,21.9752
381.171,20.993,22.5631,,381.171,112.399,109.069,,381.171,18.6772,0.20687,20.687,21.2391
390.432,26.196,24.3837,,390.432,126.82,117.99,,390.432,20.656,0.20666,20.666,21.6912
399.718,28.255,23.0283,,399.718,255.638,197.26,,399.718,11.0527,0.116741,11.6741,15.9143
409.028,26.132,23.3226,,409.028,1209.068,790.336,,409.028,2.16133,0.0295097,2.95097,7.38305
418.364,22.997,23.4387,,418.364,6943.145,4622.08,,418.364,0.331219,0.00507102,0.507102,1.4078
427.724,23.343,22.0695,,427.724,26342.847,19491.6,,427.724,0.0886123,0.00113226,0.113226,0.265981
437.108,27.282,24.3628,,437.108,63776.327,52378.6,,437.108,0.0427776,0.000465129,0.0465129,0.0724464
446.518,17.34,19.2283,,446.518,61778.432,62848.5,,446.518,0.028068,0.000305947,0.0305947,0.0385429
455.952,25.633,21.421,,455.952,29348.811,39040.2,,455.952,0.0873391,0.00054869,0.054869,0.0355907
465.411,14.416,17.947,,465.411,12896.067,16910.4,,465.411,0.111786,0.0010613,0.10613,0.0833106
474.895,17.829,19.0221,,474.895,6668.058,8047.41,,474.895,0.267379,0.00236376,0.236376,0.171844
484.403,14.425,18.108,,484.403,5161.596,5415.69,,484.403,0.279468,0.00334362,0.334362,0.289989
493.936,24.499,19.789,,493.936,7190.779,6348.99,,493.936,0.3407,0.00311687,0.311687,0.317208
503.493,14.352,19.7513,,503.493,12295.73,10671.8,,503.493,0.116723,0.00185079,0.185079,0.263316
513.074,19.805,18.9976,,513.074,17987.804,16371.3,,513.074,0.110102,0.00116042,0.116042,0.14251
522.681,20.111,18.6225,,522.681,21946.814,20907.2,,522.681,0.0916352,0.000890725,0.0890725,0.101769
532.311,16.157,18.9134,,532.311,23496.634,23215.1,,532.311,0.068763,0.000814704,0.0814704,0.0880079
541.966,22.81,22.281,,541.966,23404.455,23474.1,,541.966,0.0974601,0.000949173,0.0949173,0.0847324
551.645,18.617,20.7894,,551.645,22620.916,22902.4,,551.645,0.0822999,0.000907739,0.0907739,0.0955038
561.348,17.541,23.3953,,561.348,21446.354,21819.4,,561.348,0.0817901,0.00107223,0.107223,0.104812
571.076,22.243,21.0218,,571.076,19752.474,20281.2,,571.076,0.112609,0.00103652,0.103652,0.0977599
580.828,24.493,22.8969,,580.828,17905.662,18453.6,,580.828,0.136789,0.00124078,0.124078,0.113813
590.604,82.98,57.7446,,590.604,15779.739,16404.7,,590.604,0.525864,0.00352001,0.352001,0.202989
600.404,386.703,272.045,,600.404,13544.34,14207.5,,600.404,2.85509,0.019148,1.9148,0.94918
610.229,1178.628,908.9,,610.229,11237.642,11910.8,,610.229,10.4882,0.0763092,7.63092,4.31561
620.077,2299.42,1967.25,,620.077,9110.589,9742.29,,620.077,25.239,0.201929,20.1929,13.3756
629.949,3218.89,2986.8,,629.949,7253.439,7787.88,,629.949,44.3774,0.383519,38.3519,29.0396
639.846,3557.981,3508.47,,639.846,5684.101,6127.03,,639.846,62.5953,0.572622,57.2622,47.9907
649.766,3347.716,3442.99,,649.766,4369.577,4738.13,,649.766,76.6142,0.726655,72.6655,65.2856
659.71,2824.104,2992.57,,659.71,3288.685,3591.12,,659.71,85.8734,0.833325,83.3325,78.2523
669.678,2213.861,2386.87,,669.678,2442.874,2674.65,,669.678,90.6253,0.892404,89.2404,86.5795
679.67,1677.744,1827.91,,679.67,1818.585,1987.78,,679.67,92.2555,0.919576,91.9576,90.7243
689.686,1234.331,1352.37,,689.686,1333.341,1461.62,,689.686,92.5743,0.925256,92.5256,92.2676
699.726,889.139,982.399,,699.726,971.408,1066.88,,699.726,91.531,0.920811,92.0811,92.4323
709.789,644.346,711.163,,709.789,725.356,789.904,,709.789,88.8317,0.900315,90.0315,90.9227
719.876,452.727,496.624,,719.876,528.67,580.262,,719.876,85.6351,0.855862,85.5862,87.5873
729.987,315.524,353.722,,729.987,392.852,429.075,,729.987,80.3163,0.824384,82.4384,84.3528
740.121,229.662,251.091,,740.121,301.501,327.788,,740.121,76.1729,0.766017,76.6017,79.5634
750.279,165.126,184.383,,750.279,240.537,254.717,,750.279,68.6489,0.723872,72.3872,75.2476
760.46,123.452,138.111,,760.46,198.468,211.289,,760.46,62.2025,0.653659,65.3659,68.6312
770.665,84.927,99.0993,,770.665,168.205,179.624,,770.665,50.4902,0.551703,55.1703,60.4643
780.894,75.46,78.6695,,780.894,141.966,151.239,,780.894,53.1536,0.520167,52.0167,53.4
791.146,61.61,57.8679,,791.146,132.738,137.751,,791.146,46.4147,0.42009,42.009,46.8877
801.421,43.831,49.4592,,801.421,125.872,125.831,,801.421,34.8219,0.393061,39.3061,42.6929
811.72,37.788,43.9324,,811.72,122.787,122.308,,811.72,30.7752,0.359195,35.9195,37.0595
822.042,32.176,34.7223,,822.042,143.609,135.905,,822.042,22.4053,0.255489,25.5489,29.8702
832.387,30.815,30.6665,,832.387,213.119,194.586,,832.387,14.4591,0.157599,15.7599,20.3937
842.755,23.928,25.3237,,842.755,374.652,296.792,,842.755,6.38673,0.0853248,8.53248,13.0618
853.147,28.779,29.4518,,853.147,839.505,701.563,,853.147,3.42809,0.0419802,4.19802,6.22515
863.562,23.093,21.2004,,863.562,1167.416,1089.33,,863.562,1.97813,0.0194619,1.94619,2.7391
874,18.227,16.7426,,874,1458.677,1350.71,,874,1.24956,0.0123954,1.23954,1.63921
884.461,17.111,19.1379,,884.461,2008.756,1856.17,,884.461,0.851821,0.0103104,1.03104,1.24419
894.946,19.424,21.0566,,894.946,2096.312,2136.09,,894.946,0.92658,0.00985755,0.985755,0.9256
905.453,17.84,17.3519,,905.453,1501.394,1682.34,,905.453,1.18823,0.0103141,1.03141,0.962949
915.983,16.492,18.0616,,915.983,988.66,1118.11,,915.983,1.66812,0.0161536,1.61536,1.43712
926.537,17.527,18.6992,,926.537,680.557,763.298,,926.537,2.57539,0.0244979,2.44979,2.02844
937.113,21.013,20.3233,,937.113,451.536,508.519,,937.113,4.65367,0.0399656,3.99656,3.24486
947.712,24.767,20.8104,,947.712,329.143,359.08,,947.712,7.52469,0.0579546,5.79546,4.6424
958.334,26.153,20.109,,958.334,270.377,284.768,,958.334,9.67279,0.0706154,7.06154,6.57286
968.979,16.623,21.6095,,968.979,245.6,250.203,,968.979,6.76832,0.0863677,8.63677,8.56277
979.646,23.997,20.9061,,979.646,261.812,255.071,,979.646,9.16574,0.0819617,8.19617,7.82927
990.336,23.273,23.6008,,990.336,304.103,287.506,,990.336,7.653,0.0820878,8.20878,8.41533
1001.049,26.905,25.4037,,1001.049,360.561,344.59,,1001.049,7.46198,0.0737215,7.37215,7.52282
1011.785,24.347,26.6622,,1011.785,460.821,427.638,,1011.785,5.2834,0.0623477,6.23477,6.79115
1022.543,25.871,26.2296,,1022.543,661.52,601.668,,1022.543,3.91084,0.0435948,4.35948,5.12077
1033.324,20.84,21.7778,,1033.324,766.018,742.532,,1033.324,2.72056,0.0293291,2.93291,3.58898
1044.128,19.797,20.567,,1044.128,790.858,786.687,,1044.128,2.50323,0.0261438,2.61438,2.80663
1054.954,11.47,16.0182,,1054.954,785.495,789.002,,1054.954,1.46023,0.0203019,2.03019,2.39603
1065.802,19.402,18.0507,,1065.802,755.742,768.407,,1065.802,2.56728,0.023491,2.3491,2.06705
1076.673,18.047,16.214,,1076.673,725.053,733.084,,1076.673,2.48906,0.0221175,2.21175,2.26189
1087.567,18.493,21.0427,,1087.567,681.516,691.466,,1087.567,2.71351,0.030432,3.0432,2.58327
1098.461,10.287,12.8412,,1098.461,651.492,658.739,,1098.461,1.57899,0.0194937,1.94937,2.36049
1109.207,14.061,15.2429,,1109.207,600.16,617.068,,1109.207,2.34288,0.0247022,2.47022,2.05729
1119.954,14.633,12.3327,,1119.954,551.335,571.208,,1119.954,2.6541,0.0215906,2.15906,2.35631
1130.7,12.912,16.8903,,1130.7,503.471,516.163,,1130.7,2.5646,0.0327228,3.27228,2.63951
1141.446,14.441,10.0167,,1141.446,436.474,453.839,,1141.446,3.30856,0.022071,2.2071,2.32323
1152.192,13.948,12.1564,,1152.192,381.618,401.382,,1152.192,3.65496,0.0302863,3.02863,2.66141
1162.938,11.16,13.8568,,1162.938,332.811,345.955,,1162.938,3.35325,0.0400537,4.00537,3.34218
1173.684,12.988,15.5086,,1173.684,295.239,307.404,,1173.684,4.39915,0.0504502,5.04502,4.25518
1184.43,14.163,10.1693,,1184.43,255.181,264.288,,1184.43,5.55018,0.038478,3.8478,3.89124
1195.177,13.326,13.6694,,1195.177,220.372,233.904,,1195.177,6.04705,0.0584401,5.84401,4.76956
1205.923,14.937,10.181,,1205.923,216.735,224.26,,1205.923,6.89183,0.0453981,4.53981,4.79209
1216.669,15.917,14.2574,,1216.669,185.106,198.968,,1216.669,8.59886,0.071657,7.1657,6.62604
1227.415,13.822,14.5351,,1227.415,116.599,134.267,,1227.415,11.8543,0.108255,10.8255,8.92609
1238.161,22.667,20.283,,1238.161,88.33,97.3703,,1238.161,25.6617,0.208307,20.8307,14.669
1242.586,22.486,20.0965,,1242.586,79.058,86.0609,,1242.586,28.4424,0.233515,23.3515,