File: public_html/data/backup/plexiglas_1C33.csv
wavelength_nm,intensity,intensity_smoothed,,wavelength_nm2,intensity_i0,intensity_i0_smoothed,,wavelength_nm3,,transmission,transmission_perc,transmission_perc_smoothed
173.232,14.801,#N/A,,173.232,26.786,#N/A,,173.232,55.2565,#N/A,#N/A,#N/A
182.226,23.616,23.6139,,182.226,35.237,34.8089,,182.226,67.0205,0.678389,67.8389,#N/A
191.22,21.066,23.4671,,191.22,34.688,38.2618,,191.22,60.7299,0.61333,61.333,63.6384
200.214,25.426,21.9856,,200.214,34.593,33.7256,,200.214,73.5004,0.651895,65.1895,62.757
209.208,24.241,23.7968,,209.208,39.771,35.6535,,209.208,60.9514,0.667445,66.7445,68.2531
218.203,23.873,20.2776,,218.203,37.039,33.577,,218.203,64.4537,0.603913,60.3913,70.4054
227.197,20.233,21.4391,,227.197,37.035,37.3027,,227.197,54.6321,0.574734,57.4734,66.4337
236.191,25.956,25.137,,236.191,27.485,31.4748,,236.191,94.437,0.798638,79.8638,67.9951
245.185,48.497,40.3298,,245.185,63.117,56.0939,,245.185,76.8367,0.718969,71.8969,73.9449
254.158,48.947,45.7265,,254.158,77.748,75.9505,,254.158,62.956,0.602057,60.2057,67.3735
263.066,55.942,52.8572,,263.066,83.107,83.5233,,263.066,67.3132,0.632843,63.2843,62.7624
271.999,50.483,52.3099,,271.999,80.375,82.205,,271.999,62.8093,0.636335,63.6335,65.9325
280.958,52.024,51.3878,,280.958,85.279,82.4355,,280.958,61.0045,0.62337,62.337,62.9502
289.943,55.382,52.8156,,289.943,89.91,87.607,,289.943,61.5972,0.602869,60.2869,60.4434
298.952,54.832,53.5194,,298.952,84.904,83.8708,,298.952,64.5812,0.638117,63.8117,62.415
307.987,50.099,53.9162,,307.987,79.807,85.0579,,307.987,62.7752,0.633877,63.3877,63.462
317.047,56.275,53.8085,,317.047,83.347,85.6554,,317.047,67.5189,0.628198,62.8198,61.1398
326.132,53.633,54.4071,,326.132,84.341,86.2212,,326.132,63.5907,0.631018,63.1018,63.318
335.243,56.173,57.5882,,335.243,93.698,90.7122,,335.243,59.9511,0.634845,63.4845,61.4954
344.379,53.167,52.6762,,344.379,90.874,88.2733,,344.379,58.5063,0.59674,59.674,61.7391
353.539,55.474,54.4011,,353.539,93.625,92.69,,353.539,59.2513,0.586915,58.6915,57.8437
362.725,57.976,55.9982,,362.725,93.62,95.0673,,362.725,61.9269,0.589037,58.9037,59.4145
371.936,61.583,58.8743,,371.936,104.25,101.025,,371.936,59.0724,0.582772,58.2772,56.624
381.171,57.667,55.8884,,381.171,112.399,109.069,,381.171,51.3056,0.512413,51.2413,55.6333
390.432,59.435,59.163,,390.432,126.82,117.99,,390.432,46.8656,0.501425,50.1425,52.4202
399.718,64.411,60.8717,,399.718,255.638,197.26,,399.718,25.1962,0.308587,30.8587,41.3461
409.028,67.859,65.0362,,409.028,1209.068,790.336,,409.028,5.6125,0.0822893,8.22893,18.9927
418.364,66.659,67.7476,,418.364,6943.145,4622.08,,418.364,0.960069,0.0146574,1.46574,4.01351
427.724,63.106,59.5658,,427.724,26342.847,19491.6,,427.724,0.239556,0.00305597,0.305597,0.727261
437.108,65.949,67.6802,,437.108,63776.327,52378.6,,437.108,0.103407,0.00129214,0.129214,0.200274
446.518,65.008,63.8865,,446.518,61778.432,62848.5,,446.518,0.105228,0.00101652,0.101652,0.109302
455.952,59.348,59.6897,,455.952,29348.811,39040.2,,455.952,0.202216,0.00152893,0.152893,0.118014
465.411,59.605,59.545,,465.411,12896.067,16910.4,,465.411,0.462195,0.0035212,0.35212,0.237612
474.895,61.383,58.2439,,474.895,6668.058,8047.41,,474.895,0.920553,0.0072376,0.72376,0.531885
484.403,90.083,79.0236,,484.403,5161.596,5415.69,,484.403,1.74525,0.0145916,1.45916,1.07807
493.936,343.736,232.776,,493.936,7190.779,6348.99,,493.936,4.78023,0.0366634,3.66634,2.3216
503.493,1528.715,1089.55,,503.493,12295.73,10671.8,,503.493,12.4329,0.102096,10.2096,6.63776
513.074,4074.989,3227.8,,513.074,17987.804,16371.3,,513.074,22.6542,0.197161,19.7161,14.8046
522.681,8395.443,6967.49,,522.681,21946.814,20907.2,,522.681,38.2536,0.333258,33.3258,26.0176
532.311,14491.481,12677.3,,532.311,23496.634,23215.1,,532.311,61.6747,0.546078,54.6078,43.4275
541.966,19495.215,18198,,541.966,23404.455,23474.1,,541.966,83.297,0.775235,77.5235,66.4347
551.645,21551.192,21133.1,,551.645,22620.916,22902.4,,551.645,95.2711,0.922745,92.2745,85.6734
561.348,21316.882,21473.7,,561.348,21446.354,21819.4,,561.348,99.3963,0.984156,98.4156,95.7891
571.076,19899.568,20361.9,,571.076,19752.474,20281.2,,571.076,100.745,1.00398,100.398,99.4839
580.828,18050.905,18628.1,,580.828,17905.662,18453.6,,580.828,100.811,1.00946,100.946,100.722
590.604,15968.305,16599.4,,590.604,15779.739,16404.7,,590.604,101.195,1.01187,101.187,101.043
600.404,13722.706,14400.7,,600.404,13544.34,14207.5,,600.404,101.317,1.0136,101.36,101.373
610.229,11409.822,12074.7,,610.229,11237.642,11910.8,,610.229,101.532,1.01376,101.376,101.337
620.077,9236.239,9869.47,,620.077,9110.589,9742.29,,620.077,101.379,1.01305,101.305,101.402
629.949,7352.668,7894.56,,629.949,7253.439,7787.88,,629.949,101.368,1.0137,101.37,101.389
639.846,5734.376,6209.65,,639.846,5684.101,6127.03,,639.846,100.884,1.01349,101.349,101.382
649.766,4402.196,4771.13,,649.766,4369.577,4738.13,,649.766,100.747,1.00697,100.697,100.954
659.71,3302.868,3624.2,,659.71,3288.685,3591.12,,659.71,100.431,1.00921,100.921,100.727
669.678,2444.639,2687.13,,669.678,2442.874,2674.65,,669.678,100.072,1.00467,100.467,100.562
679.67,1804.707,1985.82,,679.67,1818.585,1987.78,,679.67,99.2369,0.999017,99.9017,100.26
689.686,1317.916,1450.34,,689.686,1333.341,1461.62,,689.686,98.8431,0.992284,99.2284,99.3027
699.726,953.573,1052,,699.726,971.408,1066.88,,699.726,98.164,0.986052,98.6052,98.8463
709.789,699.67,767.779,,709.789,725.356,789.904,,709.789,96.4588,0.97199,97.199,98.0999
719.876,501.495,557.142,,719.876,528.67,580.262,,719.876,94.8597,0.960157,96.0157,96.6078
729.987,359.573,398.545,,729.987,392.852,429.075,,729.987,91.5289,0.928846,92.8846,94.4715
740.121,272.439,295.176,,740.121,301.501,327.788,,740.121,90.3609,0.900509,90.0509,92.2256
750.279,197.467,222.007,,750.279,240.537,254.717,,750.279,82.0942,0.87158,87.158,89.3082
760.46,162.349,177.583,,760.46,198.468,211.289,,760.46,81.8011,0.840476,84.0476,84.293
770.665,135.46,138.688,,770.665,168.205,179.624,,770.665,80.5327,0.772098,77.2098,79.7584
780.894,109.942,113.999,,780.894,141.966,151.239,,780.894,77.4425,0.75377,75.377,76.682
791.146,92.765,100.021,,791.146,132.738,137.751,,791.146,69.8858,0.726097,72.6097,73.5303
801.421,81.647,86.7729,,801.421,125.872,125.831,,801.421,64.8651,0.6896,68.96,69.4341
811.72,72.972,74.1119,,811.72,122.787,122.308,,811.72,59.4297,0.605944,60.5944,63.1987
822.042,72.21,70.2025,,822.042,143.609,135.905,,822.042,50.2824,0.516555,51.6555,58.275
832.387,68.33,74.6995,,832.387,213.119,194.586,,832.387,32.0619,0.383889,38.3889,46.5893
842.755,65.335,60.8119,,842.755,374.652,296.792,,842.755,17.4388,0.204897,20.4897,29.6189
853.147,67.164,74.235,,853.147,839.505,701.563,,853.147,8.00043,0.105814,10.5814,15.0045
863.562,52.148,58.347,,863.562,1167.416,1089.33,,863.562,4.46696,0.0535623,5.35623,7.29929
874,41.311,43.1327,,874,1458.677,1350.71,,874,2.83209,0.0319334,3.19334,4.17613
884.461,41.948,43.5733,,884.461,2008.756,1856.17,,884.461,2.08826,0.0234749,2.34749,2.76138
894.946,48.309,46.3146,,894.946,2096.312,2136.09,,894.946,2.30448,0.021682,2.1682,2.17311
905.453,47.144,47.4156,,905.453,1501.394,1682.34,,905.453,3.14002,0.0281843,2.81843,2.41036
915.983,53.247,50.3747,,915.983,988.66,1118.11,,915.983,5.38577,0.0450533,4.50533,3.50775
926.537,54.514,49.0145,,926.537,680.557,763.298,,926.537,8.0102,0.0642142,6.42142,5.20521
937.113,46.046,47.9015,,937.113,451.536,508.519,,937.113,10.1976,0.0941981,9.41981,8.02332
947.712,51.752,48.6561,,947.712,329.143,359.08,,947.712,15.7233,0.135502,13.5502,11.1639
958.334,54.54,55.7126,,958.334,270.377,284.768,,958.334,20.1718,0.195642,19.5642,16.4648
968.979,50.863,53.2544,,968.979,245.6,250.203,,968.979,20.7097,0.212845,21.2845,19.6638
979.646,53.267,55.8057,,979.646,261.812,255.071,,979.646,20.3455,0.218785,21.8785,21.7465
990.336,61.659,58.5182,,990.336,304.103,287.506,,990.336,20.2757,0.203537,20.3537,21.2225
1001.049,76.311,70.4764,,1001.049,360.561,344.59,,1001.049,21.1645,0.204522,20.4522,20.6325
1011.785,106.767,97.3055,,1011.785,460.821,427.638,,1011.785,23.1689,0.227542,22.7542,21.5123
1022.543,173.025,154.946,,1022.543,661.52,601.668,,1022.543,26.1557,0.257528,25.7528,24.1072
1033.324,233.447,214.087,,1033.324,766.018,742.532,,1033.324,30.4754,0.28832,28.832,26.7387
1044.128,309.668,280.891,,1044.128,790.858,786.687,,1044.128,39.156,0.357056,35.7056,32.2317
1054.954,374.05,353.868,,1054.954,785.495,789.002,,1054.954,47.6197,0.448501,44.8501,40.5743
1065.802,456.59,436.047,,1065.802,755.742,768.407,,1065.802,60.4161,0.567468,56.7468,50.5163
1076.673,523.832,508.205,,1076.673,725.053,733.084,,1076.673,72.2474,0.693243,69.3243,63.1044
1087.567,559.409,550.369,,1087.567,681.516,691.466,,1087.567,82.083,0.795945,79.5945,74.387
1098.461,575.32,576.238,,1098.461,651.492,658.739,,1098.461,88.3081,0.87476,87.476,83.6514
1109.207,552.379,564.11,,1109.207,600.16,617.068,,1109.207,92.0386,0.914179,91.4179,89.2475
1119.954,514.767,530.956,,1119.954,551.335,571.208,,1119.954,93.3674,0.929531,92.9531,92.363
1130.7,463.664,481.896,,1130.7,503.471,516.163,,1130.7,92.0935,0.933612,93.3612,93.509
1141.446,409.794,426.161,,1141.446,436.474,453.839,,1141.446,93.8874,0.939014,93.9014,92.9904
1152.192,363.249,374.638,,1152.192,381.618,401.382,,1152.192,95.1865,0.93337,93.337,93.306
1162.938,308.484,324.117,,1162.938,332.811,345.955,,1162.938,92.6904,0.936876,93.6876,93.8015
1173.684,264.23,277.306,,1173.684,295.239,307.404,,1173.684,89.497,0.902092,90.2092,91.9785
1184.43,226.49,236.939,,1184.43,255.181,264.288,,1184.43,88.7566,0.896519,89.6519,90.2524
1195.177,191.365,199.588,,1195.177,220.372,233.904,,1195.177,86.8373,0.853293,85.3293,86.6635
1205.923,149.959,164.673,,1205.923,216.735,224.26,,1205.923,69.19,0.734295,73.4295,80.4267
1216.669,119.014,129.561,,1216.669,185.106,198.968,,1216.669,64.2951,0.651167,65.1167,68.043
1227.415,89.007,98.3809,,1227.415,116.599,134.267,,1227.415,76.336,0.732724,73.2724,67.7793
1238.161,70.417,79.0765,,1238.161,88.33,97.3703,,1238.161,79.7204,0.812122,81.2122,78.6672
1242.586,59.809,70.9495,,1242.586,79.058,86.0609,,1242.586,75.6521,0.82441,82.441,