File: public_html/data/backup/plexiglas_5C50.csv
wavelength_nm,intensity,intensity_smoothed,,wavelength_nm2,intensity_i0,intensity_i0_smoothed,,wavelength_nm3,,transmission,transmission_perc,transmission_perc_smoothed
173.232,21.719,#N/A,,173.232,26.786,#N/A,,173.232,81.0834,#N/A,#N/A,#N/A
182.226,29.702,31.7187,,182.226,35.237,34.8089,,182.226,84.2921,0.911226,91.1226,#N/A
191.22,31.155,29.7876,,191.22,34.688,38.2618,,191.22,89.8149,0.778522,77.8522,84.2454
200.214,29.88,28.5794,,200.214,34.593,33.7256,,200.214,86.3759,0.84741,84.741,88.6266
209.208,30.332,29.8794,,209.208,39.771,35.6535,,209.208,76.2666,0.838051,83.8051,87.9005
218.203,25.694,27.7005,,218.203,37.039,33.577,,218.203,69.3701,0.824985,82.4985,85.808
227.197,27.237,28.8093,,227.197,37.035,37.3027,,227.197,73.5439,0.772313,77.2313,80.6221
236.191,32.598,29.2343,,236.191,27.485,31.4748,,236.191,118.603,0.928815,92.8815,84.5234
245.185,52.868,51.7965,,245.185,63.117,56.0939,,245.185,83.7619,0.92339,92.339,103.244
254.158,67.957,68.7026,,254.158,77.748,75.9505,,254.158,87.4068,0.904571,90.4571,89.377
263.066,81.409,78.0599,,263.066,83.107,83.5233,,263.066,97.9569,0.934588,93.4588,90.3963
271.999,76.406,80.0044,,271.999,80.375,82.205,,271.999,95.0619,0.97323,97.323,96.3883
280.958,72.13,72.725,,280.958,85.279,82.4355,,280.958,84.5812,0.882205,88.2205,92.3804
289.943,72.946,76.8924,,289.943,89.91,87.607,,289.943,81.1322,0.877697,87.7697,87.1434
298.952,79.761,76.6355,,298.952,84.904,83.8708,,298.952,93.9426,0.913733,91.3733,88.7906
307.987,79.485,80.0108,,307.987,79.807,85.0579,,307.987,99.5965,0.940663,94.0663,91.37
317.047,77.846,76.6157,,317.047,83.347,85.6554,,317.047,93.3999,0.894464,89.4464,91.923
326.132,79.297,75.503,,326.132,84.341,86.2212,,326.132,94.0195,0.875689,87.5689,88.2177
335.243,82.839,79.7479,,335.243,93.698,90.7122,,335.243,88.4106,0.879131,87.9131,88.124
344.379,82.381,81.5956,,344.379,90.874,88.2733,,344.379,90.6541,0.924352,92.4352,90.9306
353.539,82.94,82.4049,,353.539,93.625,92.69,,353.539,88.5874,0.889038,88.9038,88.4442
362.725,98.949,92.5115,,362.725,93.62,95.0673,,362.725,105.692,0.973115,97.3115,90.7199
371.936,97.116,94.3909,,371.936,104.25,101.025,,371.936,93.1568,0.934337,93.4337,91.9844
381.171,101.386,98.7429,,381.171,112.399,109.069,,381.171,90.2019,0.905326,90.5326,91.5814
390.432,114.272,110.792,,390.432,126.82,117.99,,390.432,90.1057,0.939001,93.9001,91.7235
399.718,180.509,148.798,,399.718,255.638,197.26,,399.718,70.6112,0.754327,75.4327,85.1914
409.028,1155.019,709.192,,409.028,1209.068,790.336,,409.028,95.5297,0.897329,89.7329,79.4566
418.364,7490.808,4934.35,,418.364,6943.145,4622.08,,418.364,107.888,1.06756,106.756,100.312
427.724,28402.436,21060.5,,427.724,26342.847,19491.6,,427.724,107.818,1.08049,108.049,107.825
437.108,64000,57445.3,,437.108,63776.327,52378.6,,437.108,100.351,1.09673,109.673,109.914
446.518,62034.302,63035.2,,446.518,61778.432,62848.5,,446.518,100.414,1.00297,100.297,102.634
455.952,31278.002,41213.4,,455.952,29348.811,39040.2,,455.952,106.573,1.05567,105.567,102.799
465.411,13671.631,17967.2,,465.411,12896.067,16910.4,,465.411,106.014,1.06249,106.249,106.135
474.895,7022.187,8498.52,,474.895,6668.058,8047.41,,474.895,105.311,1.05606,105.606,105.984
484.403,5392.082,5675.5,,484.403,5161.596,5415.69,,484.403,104.465,1.04797,104.797,105.215
493.936,7444.365,6596.14,,493.936,7190.779,6348.99,,493.936,103.527,1.03893,103.893,104.417
503.493,12612.713,10977.4,,503.493,12295.73,10671.8,,503.493,102.578,1.02864,102.864,103.415
513.074,18273.438,16684.5,,513.074,17987.804,16371.3,,513.074,101.588,1.01913,101.913,102.385
522.681,22079.772,21114.7,,522.681,21946.814,20907.2,,522.681,100.606,1.00993,100.993,101.48
532.311,23362.563,23160.6,,532.311,23496.634,23215.1,,532.311,99.4294,0.997654,99.7654,100.419
541.966,22927.182,23105.7,,541.966,23404.455,23474.1,,541.966,97.9608,0.984305,98.4305,99.1274
551.645,21771.781,22146.8,,551.645,22620.916,22902.4,,551.645,96.2462,0.967008,96.7008,97.5386
561.348,20199.519,20674.3,,561.348,21446.354,21819.4,,561.348,94.1863,0.94752,94.752,95.7075
571.076,18254.69,18849.5,,571.076,19752.474,20281.2,,571.076,92.4172,0.92941,92.941,93.8054
580.828,16236.44,16839,,580.828,17905.662,18453.6,,580.828,90.6777,0.912505,91.2505,92.1065
590.604,14187.661,14795.6,,590.604,15779.739,16404.7,,590.604,89.9106,0.901917,90.1917,90.6731
600.404,12078.464,12701.1,,600.404,13544.34,14207.5,,600.404,89.1772,0.893974,89.3974,89.7996
610.229,9984.618,10575.4,,610.229,11237.642,11910.8,,610.229,88.8498,0.887884,88.7884,89.0464
620.077,8133.551,8674.48,,620.077,9110.589,9742.29,,620.077,89.2758,0.890394,89.0394,88.8985
629.949,6502.235,6982.36,,629.949,7253.439,7787.88,,629.949,89.6435,0.896567,89.6567,89.4799
639.846,5108.407,5517.28,,639.846,5684.101,6127.03,,639.846,89.8719,0.900482,90.0482,89.8733
649.766,3971.405,4296.76,,649.766,4369.577,4738.13,,649.766,90.8876,0.906848,90.6848,90.2721
659.71,3008.112,3271.43,,659.71,3288.685,3591.12,,659.71,91.4685,0.910977,91.0977,90.8099
669.678,2241.332,2447.68,,669.678,2442.874,2674.65,,669.678,91.7498,0.91514,91.514,91.2845
679.67,1671.533,1833.19,,679.67,1818.585,1987.78,,679.67,91.9139,0.922231,92.2231,91.9823
689.686,1236.238,1354.52,,689.686,1333.341,1461.62,,689.686,92.7173,0.926725,92.6725,92.2009
699.726,890.863,984.569,,699.726,971.408,1066.88,,699.726,91.7084,0.922845,92.2845,92.3977
709.789,647.414,717.845,,709.789,725.356,789.904,,709.789,89.2547,0.908774,90.8774,91.5831
719.876,480.173,527.172,,719.876,528.67,580.262,,719.876,90.8266,0.908507,90.8507,90.4844
729.987,356.55,390.402,,729.987,392.852,429.075,,729.987,90.7594,0.909869,90.9869,91.1036
740.121,283.132,305.589,,740.121,301.501,327.788,,740.121,93.9075,0.932275,93.2275,91.9465
750.279,231.174,245.374,,750.279,240.537,254.717,,750.279,96.1075,0.963318,96.3318,94.6694
760.46,195.497,205.968,,760.46,198.468,211.289,,760.46,98.503,0.974816,97.4816,96.1421
770.665,160.517,171.229,,770.665,168.205,179.624,,770.665,95.4294,0.953261,95.3261,96.9799
780.894,140.114,144.379,,780.894,141.966,151.239,,780.894,98.6955,0.954641,95.4641,95.9613
791.146,119.9,127.528,,791.146,132.738,137.751,,791.146,90.3283,0.925781,92.5781,95.4126
801.421,112.594,114.045,,801.421,125.872,125.831,,801.421,89.4512,0.906332,90.6332,91.3878
811.72,111.524,109.502,,811.72,122.787,122.308,,811.72,90.8272,0.895297,89.5297,89.7052
822.042,137.108,127.605,,822.042,143.609,135.905,,822.042,95.4731,0.938929,93.8929,92.6574
832.387,210.078,188.481,,832.387,213.119,194.586,,832.387,98.5731,0.968625,96.8625,95.1867
842.755,384.737,300.098,,842.755,374.652,296.792,,842.755,102.692,1.01114,101.114,100.23
853.147,870.527,727.524,,853.147,839.505,701.563,,853.147,103.695,1.037,103.7,102.766
863.562,1217.638,1136.69,,863.562,1167.416,1089.33,,863.562,104.302,1.04348,104.348,103.964
874,1520.053,1408.02,,874,1458.677,1350.71,,874,104.208,1.04243,104.243,104.264
884.461,2107.299,1942.88,,884.461,2008.756,1856.17,,884.461,104.906,1.04672,104.672,104.348
894.946,2186.989,2234.42,,894.946,2096.312,2136.09,,894.946,104.326,1.04603,104.603,104.678
905.453,1567.078,1759.73,,905.453,1501.394,1682.34,,905.453,104.375,1.046,104.6,104.508
915.983,1023.492,1161.53,,915.983,988.66,1118.11,,915.983,103.523,1.03883,103.883,104.184
926.537,696.8,783.212,,926.537,680.557,763.298,,926.537,102.387,1.02609,102.609,103.719
937.113,459.922,528.375,,937.113,451.536,508.519,,937.113,101.857,1.03905,103.905,103.39
947.712,333.676,366.459,,947.712,329.143,359.08,,947.712,101.377,1.02055,102.055,102.258
958.334,267.971,284.594,,958.334,270.377,284.768,,958.334,99.1101,0.999389,99.9389,101.398
968.979,242.532,250.345,,968.979,245.6,250.203,,968.979,98.7508,1.00057,100.057,100.02
979.646,256.542,246.792,,979.646,261.812,255.071,,979.646,97.9871,0.967539,96.7539,98.1961
990.336,306.091,287.563,,990.336,304.103,287.506,,990.336,100.654,1.0002,100.02,98.5509
1001.049,361.087,345.914,,1001.049,360.561,344.59,,1001.049,100.146,1.00384,100.384,99.7177
1011.785,466.074,428.564,,1011.785,460.821,427.638,,1011.785,101.14,1.00216,100.216,100.244
1022.543,654.689,604.367,,1022.543,661.52,601.668,,1022.543,98.9674,1.00449,100.449,100.447
1033.324,761.203,742.54,,1033.324,766.018,742.532,,1033.324,99.3714,1.00001,100.001,100.239
1044.128,786.706,781.509,,1044.128,790.858,786.687,,1044.128,99.475,0.993418,99.3418,99.3098
1054.954,773.652,779.492,,1054.954,785.495,789.002,,1054.954,98.4923,0.987947,98.7947,99.2531
1065.802,749.493,754.543,,1065.802,755.742,768.407,,1065.802,99.1731,0.981957,98.1957,98.2235
1076.673,704.683,712.349,,1076.673,725.053,733.084,,1076.673,97.1906,0.971715,97.1715,97.7559
1087.567,652.039,670.583,,1087.567,681.516,691.466,,1087.567,95.6748,0.969799,96.9799,97.0481
1098.461,633.196,639.027,,1098.461,651.492,658.739,,1098.461,97.1917,0.970077,97.0077,96.7583
1109.207,572.788,586.255,,1109.207,600.16,617.068,,1109.207,95.4392,0.950066,95.0066,95.6306
1119.954,523.997,537.463,,1119.954,551.335,571.208,,1119.954,95.0415,0.940924,94.0924,94.8074
1130.7,471.275,490.079,,1130.7,503.471,516.163,,1130.7,93.6052,0.949465,94.9465,94.7765
1141.446,404.35,428.584,,1141.446,436.474,453.839,,1141.446,92.6401,0.944352,94.4352,94.3066
1152.192,350.584,367.979,,1152.192,381.618,401.382,,1152.192,91.8678,0.91678,91.678,92.9197
1162.938,309.614,320.825,,1162.938,332.811,345.955,,1162.938,93.03,0.927361,92.7361,92.1145
1173.684,268.716,276.941,,1173.684,295.239,307.404,,1173.684,91.0164,0.900902,90.0902,91.551
1184.43,237.072,247.175,,1184.43,255.181,264.288,,1184.43,92.9035,0.935246,93.5246,90.662
1195.177,205.144,209.261,,1195.177,220.372,233.904,,1195.177,93.0899,0.894646,89.4646,90.3404
1205.923,206.756,207.291,,1205.923,216.735,224.26,,1205.923,95.3958,0.924335,92.4335,91.4075
1216.669,173.008,185.944,,1216.669,185.106,198.968,,1216.669,93.4643,0.934544,93.4544,92.7573
1227.415,117.822,129.426,,1227.415,116.599,134.267,,1227.415,101.049,0.963941,96.3941,93.4806
1238.161,82.849,94.7553,,1238.161,88.33,97.3703,,1238.161,93.7949,0.973144,97.3144,96.8071
1242.586,70.486,80.5552,,1242.586,79.058,86.0609,,1242.586,89.1573,0.936026,93.6026,