File: public_html/data/backup/plexiglas_0F00.csv
wavelength_nm,intensity,intensity_smoothed,,wavelength_nm2,intensity_i0,intensity_i0_smoothed,,wavelength_nm3,,transmission,transmission_perc,transmission_perc_smoothed
173.232,17.719,#N/A,,173.232,26.786,#N/A,,173.232,66.1502,#N/A,#N/A,#N/A
181.961,37.066,30.737,,181.961,33.965,34.9026,,181.961,109.13,0.880652,88.0652,#N/A
190.691,31.155,30.1828,,190.691,35.688,38.888,,190.691,87.2983,0.776147,77.6147,84.1574
199.421,23.88,29.2812,,199.421,32.139,33.6557,,199.421,74.3022,0.870021,87.0021,85.2698
208.15,36.696,35.7465,,208.15,34.68,34.8943,,208.15,105.813,1.02442,102.442,89.4779
216.88,26.33,27.8311,,216.88,34.676,31.8467,,216.88,75.9315,0.873909,87.3909,93.1291
225.609,31.328,27.6596,,225.609,40.217,36.1784,,225.609,77.8974,0.764534,76.4534,82.4701
234.339,33.599,32.5608,,234.339,34.304,34.4358,,234.339,97.9448,0.945551,94.5551,87.163
243.069,52.142,44.9027,,243.069,60.39,48.2331,,243.069,86.3421,0.930952,93.0952,99.1997
251.798,71.139,66.3358,,251.798,78.022,73.4829,,251.798,91.1781,0.902739,90.2739,93.613
260.443,74.409,74.024,,260.443,84.199,83.7208,,260.443,88.3728,0.884177,88.4177,90.0718
269.106,81.043,77.7008,,269.106,81.376,82.2561,,269.106,99.5908,0.944621,94.4621,92.1183
277.794,76.677,78.1445,,277.794,82.28,82.0625,,277.794,93.1903,0.952255,95.2255,96.4195
286.505,82.038,79.0553,,286.505,90.184,87.6258,,286.505,90.9674,0.902192,90.2192,91.8651
295.239,81.489,83.0101,,295.239,83.452,86.6223,,295.239,97.6477,0.9583,95.83,93.7064
303.998,81.123,78.5103,,303.998,88.174,86.6902,,303.998,92.0033,0.905642,90.5642,93.4655
312.78,81.302,83.086,,312.78,89.35,86.5034,,312.78,90.9927,0.960495,96.0495,94.235
321.587,81.662,79.7654,,321.587,85.253,85.7733,,321.587,95.7878,0.929956,92.9956,93.2128
330.417,83.75,83.1493,,330.417,96.156,90.4288,,330.417,87.098,0.9195,91.95,93.1372
339.27,81.292,81.5707,,339.27,88.514,89.3155,,339.27,91.8408,0.913287,91.3287,91.1348
348.148,88.229,83.1463,,348.148,93.362,93.4311,,348.148,94.502,0.889922,88.9922,91.3138
357.048,88.243,88.9285,,357.048,92.684,93.1377,,357.048,95.2085,0.954806,95.4806,92.9912
365.973,92.96,94.307,,365.973,104.471,100.243,,365.973,88.9816,0.940783,94.0783,95.489
374.921,99.268,96.3248,,374.921,105.923,103.86,,374.921,93.7171,0.927451,92.7451,94.3188
383.893,102.312,100.905,,383.893,113.574,112.156,,383.893,90.084,0.899682,89.9682,91.0759
392.888,133.005,121.379,,392.888,138.54,127.014,,392.888,96.0048,0.955632,95.5632,91.9324
401.906,325.302,239.645,,401.906,334.594,250.877,,401.906,97.2229,0.955229,95.5229,94.8208
410.948,1786.265,1151.06,,410.948,1758.437,1138.44,,410.948,101.583,1.01109,101.109,99.1126
420.014,9232.18,6249.75,,420.014,9137.17,6168.31,,420.014,101.04,1.0132,101.32,101.375
429.102,30682.423,23152.1,,429.102,30647.898,23061.4,,429.102,100.113,1.00393,100.393,100.8
438.214,64000,56312.7,,438.214,64000,56358.9,,438.214,100,0.999181,99.9181,99.9968
447.35,60766.996,62388,,447.35,60761.932,62468.2,,447.35,100.008,0.998717,99.8717,99.9293
456.508,28704.888,38045.1,,456.508,27838.543,37122.1,,456.508,103.112,1.02486,102.486,101.11
465.69,13080.855,17088.5,,465.69,12596.146,16509,,465.69,103.848,1.0351,103.51,103.03
474.895,6909.127,8339.27,,474.895,6668.058,8047.41,,474.895,103.615,1.03627,103.627,103.655
484.123,5344.15,5633.6,,484.123,5160.507,5444.05,,484.123,103.559,1.03482,103.482,103.584
493.374,7137.469,6357.89,,493.374,6970.285,6189.83,,493.374,102.399,1.02715,102.715,103.207
502.649,12021.696,10436,,502.649,11773.899,10193.6,,502.649,102.105,1.02378,102.378,102.564
511.946,17782.302,16060.9,,511.946,17373.417,15713.3,,511.946,102.354,1.02212,102.212,102.232
521.266,22037.119,20886.1,,521.266,21472.576,20371.4,,521.266,102.629,1.02526,102.526,102.361
530.61,24040.386,23604.4,,530.61,23420.502,22992.8,,530.61,102.647,1.0266,102.66,102.575
539.976,24164.573,24168.2,,539.976,23489.581,23508.8,,539.976,102.874,1.02805,102.805,102.775
549.365,23611.085,23804.2,,549.365,22873.453,23102.2,,549.365,103.225,1.03039,103.039,102.919
558.777,22491.828,22851.8,,558.777,21786.544,22154.5,,558.777,103.237,1.03147,103.147,103.147
568.212,20999.773,21464.6,,568.212,20287.739,20787.2,,568.212,103.51,1.03259,103.259,103.208
577.67,19150.826,19703.6,,577.67,18510.226,19068,,577.67,103.461,1.03333,103.333,103.356
587.151,17113.14,17734.1,,587.151,16543.598,17160.6,,587.151,103.443,1.03342,103.342,103.306
596.654,14899.648,15597.1,,596.654,14396.623,15056.5,,596.654,103.494,1.03591,103.591,103.456
606.18,12648.709,13332.1,,606.18,12197.964,12856.3,,606.18,103.695,1.03701,103.701,103.563
615.729,10416.301,11067.4,,615.729,10058.86,10678.5,,615.729,103.553,1.03643,103.643,103.717
625.3,8404.194,8996.98,,625.3,8130.117,8667.67,,625.3,103.371,1.03799,103.799,103.758
634.895,6693.92,7186.63,,634.895,6437.347,6930.48,,634.895,103.986,1.03696,103.696,103.715
644.511,5210.268,5638.53,,644.511,5039.689,5442.77,,644.511,103.385,1.03597,103.597,103.732
654.15,4003.196,4348.7,,654.15,3879.887,4212.17,,654.15,103.178,1.03241,103.241,103.483
663.812,3014.597,3300.98,,663.812,2903.757,3185.45,,663.812,103.817,1.03627,103.627,103.483
673.496,2249.191,2462.9,,673.496,2177.624,2385.3,,673.496,103.286,1.03253,103.253,103.504
683.203,1668.076,1833.33,,683.203,1629.665,1789.43,,683.203,102.357,1.02453,102.453,102.858
692.932,1238.035,1360.59,,692.932,1205.908,1326.76,,692.932,102.664,1.02549,102.549,102.604
702.683,914.802,1003.99,,702.683,890.997,976.474,,702.683,102.672,1.02818,102.818,103.189
712.457,676.346,742.278,,712.457,662.098,731.816,,712.457,102.152,1.0143,101.43,102.145
722.253,506.948,555.465,,722.253,492.698,539.006,,722.253,102.892,1.03054,103.054,102.316
732.071,373.403,409.424,,732.071,368.083,402.635,,732.071,101.445,1.01686,101.686,102.137
741.912,291.266,312.54,,741.912,284.041,311.713,,741.912,102.544,1.00265,100.265,100.404
751.775,232.238,248.935,,751.775,237.1,248.653,,751.775,97.9494,1.00113,100.113,100.598
761.66,188.412,204.047,,761.66,194.555,206.569,,761.66,96.8425,0.987789,98.7789,98.3524
771.567,162.14,171.384,,771.567,163.64,176.077,,771.567,99.0834,0.973347,97.3347,98.4876
781.496,144.869,151.53,,781.496,140.7,149.314,,781.496,102.963,1.01484,101.484,99.5019
791.448,124.667,130.237,,791.448,132.187,137.25,,791.448,94.3111,0.948902,94.8902,97.4206
801.421,114.349,116.831,,801.421,125.872,125.831,,801.421,90.8455,0.928477,92.8477,94.7658
811.416,112.455,117.126,,811.416,124.855,122.025,,811.416,90.0685,0.959854,95.9854,93.7485
821.434,132.108,126.97,,821.434,141.814,134.579,,821.434,93.1558,0.94346,94.346,95.259
831.473,209.65,185.491,,831.473,210.594,188.501,,831.473,99.5517,0.984033,98.4033,95.7785
841.534,339.112,271.771,,841.534,332.71,269.986,,841.534,101.924,1.00661,100.661,100.027
851.617,793.814,648.369,,851.617,770.317,633.325,,851.617,103.05,1.02376,102.376,101.36
861.722,1156.803,1065.8,,861.722,1129.608,1039.28,,861.722,102.407,1.02551,102.551,102.515
871.849,1384.364,1302.46,,871.849,1369.33,1283.25,,871.849,101.098,1.01497,101.497,102.059
881.998,1913.935,1743.35,,881.998,1894.555,1728.37,,881.998,101.023,1.00866,100.866,101.052
892.168,2221.091,2178.18,,892.168,2167.414,2133.41,,892.168,102.477,1.02098,102.098,101.423
902.36,1735.943,1905.6,,902.36,1687.304,1860.3,,902.36,102.883,1.02435,102.435,102.303
912.574,1161.691,1323.31,,912.574,1116.511,1277.41,,912.574,104.047,1.03593,103.593,103.026
922.809,799.82,895.327,,922.809,778.594,868.159,,922.809,102.726,1.03129,103.129,103.323
933.066,552.036,619.149,,933.066,526.489,595.013,,933.066,104.852,1.04056,104.056,103.248
943.345,379.522,421.509,,943.345,364.376,409.241,,943.345,104.157,1.02998,102.998,103.737
953.645,287.547,311.689,,953.645,288.345,308.804,,953.645,99.7232,1.00934,100.934,102.189
963.966,253.568,260.991,,963.966,254.941,261.316,,963.966,99.4614,0.998755,99.8755,100.438
974.31,248.22,251.356,,974.31,250.162,247.567,,974.31,99.2237,1.0153,101.53,101.104
984.674,277.411,267.53,,984.674,275.919,265.785,,984.674,100.541,1.00657,100.657,100.413
995.06,337.232,321.17,,995.06,334.117,312.552,,995.06,100.932,1.02757,102.757,101.605
1005.467,399.682,375.803,,1005.467,392.301,371.571,,1005.467,101.881,1.01139,101.139,101.434
1015.896,542.487,490.88,,1015.896,527.561,479.986,,1015.896,102.829,1.0227,102.27,101.758
1026.346,720.466,677.513,,1026.346,708.896,662.723,,1026.346,101.632,1.02232,102.232,102.609
1036.817,794.161,776.234,,1036.817,784.121,766.641,,1036.817,101.28,1.01251,101.251,102.166
1047.31,812.392,805.289,,1047.31,791.053,789.481,,1047.31,102.698,1.02002,102.002,101.65
1057.823,791.338,799.024,,1057.823,784.782,786.688,,1057.823,100.835,1.01568,101.568,102.233
1068.358,758.272,770.258,,1068.358,746.577,758.991,,1068.358,101.566,1.01484,101.484,101.526
1078.914,728.282,736.667,,1078.914,718.983,727.046,,1078.914,101.293,1.01323,101.323,101.741
1089.491,685.64,697.808,,1089.491,680.268,686.215,,1089.491,100.79,1.01689,101.689,101.742
1100.042,651.618,663.729,,1100.042,648.432,654.815,,1100.042,100.491,1.01361,101.361,101.709
1110.472,612.942,620.663,,1110.472,594.744,610.059,,1110.472,103.06,1.01738,101.738,100.96
1120.902,561.701,581,,1120.902,545.02,565.139,,1120.902,103.061,1.02806,102.806,102.359
1131.332,509.532,527.323,,1131.332,500.167,513.641,,1131.332,101.872,1.02664,102.664,102.776
1141.762,451.796,466.651,,1141.762,435.458,452.103,,1141.762,103.752,1.03218,103.218,102.558
1152.192,388.675,406.002,,1152.192,381.618,401.382,,1152.192,101.849,1.01151,101.151,102.415
1162.622,341.17,352.751,,1162.622,334.467,347.231,,1162.622,102.004,1.0159,101.59,101.179
1173.052,287.828,303.576,,1173.052,298.098,309.96,,1173.052,96.5548,0.979404,97.9404,100.068
1183.482,258.924,267.961,,1183.482,258.334,266.759,,1183.482,100.228,1.0045,100.45,98.05
1193.912,230.008,237.664,,1193.912,226.821,239.129,,1193.912,101.405,0.993876,99.3876,99.0851
1204.342,221.54,225.343,,1204.342,223.842,225.218,,1204.342,98.9716,1.00056,100.056,101.305
1214.773,197.348,203.897,,1214.773,195.595,206.08,,1214.773,100.896,0.989406,98.9406,99.7996
1225.203,136.26,149.078,,1225.203,125.828,148.028,,1225.203,108.291,1.00709,100.709,99.6847
1235.633,92.47,104.18,,1235.633,95.926,102.941,,1235.633,96.3972,1.01204,101.204,102.309
1242.586,85.32,85.3696,,1242.586,79.058,86.0609,,1242.586,107.921,0.991968,99.1968,