File: public_html/data/backup/schreiberglass-Kupferrot_7878.csv
wavelength_nm,intensity,intensity_smoothed,,wavelength_nm2,intensity_i0,intensity_i0_smoothed,,wavelength_nm3,,transmission,transmission_perc,transmission_perc_smoothed
173.232,8.053,#N/A,,173.232,19.372,#N/A,,173.232,41.5703,#N/A,#N/A,#N/A
182.226,14.793,12.4676,,182.226,39.142,36.0714,,182.226,37.7932,0.345638,34.5638,#N/A
191.22,16.973,13.5119,,191.22,32.595,32.9671,,191.22,52.0724,0.40986,40.986,40.6859
200.214,18.607,13.8832,,200.214,33.229,32.0517,,200.214,55.9963,0.433151,43.3151,39.213
209.208,15.696,13.7645,,209.208,42.499,40.6429,,209.208,36.9326,0.338669,33.8669,42.1554
218.203,16.512,14.8515,,218.203,39.86,36.9478,,218.203,41.425,0.40196,40.196,35.3181
227.197,12.691,11.1028,,227.197,41.039,34.9444,,227.197,30.9242,0.317727,31.7727,36.4888
236.191,19.234,13.1835,,236.191,38.855,38.0541,,236.191,49.502,0.34644,34.644,27.8059
245.185,16.505,12.3438,,245.185,60.852,56.5664,,245.185,27.1232,0.218218,21.8218,32.6366
254.158,10.866,10.7206,,254.158,81.031,74.5507,,254.158,13.4097,0.143802,14.3802,18.7674
263.066,11.045,10.7805,,263.066,84.028,82.2669,,263.066,13.1444,0.131042,13.1042,14.1825
271.999,11.042,13.4148,,271.999,87.661,85.1956,,271.999,12.5963,0.157458,15.7458,14.9565
280.958,16.494,18.0498,,280.958,82.385,83.2013,,280.958,20.0206,0.216941,21.6941,18.391
289.943,13.491,15.3057,,289.943,81.564,82.6769,,289.943,16.5404,0.185126,18.5126,20.158
298.952,16.397,14.0889,,298.952,81.833,83.2325,,298.952,20.0371,0.169272,16.9272,17.2554
307.987,16.303,20.3661,,307.987,76.557,83.2263,,307.987,21.2952,0.244707,24.4707,20.863
317.047,16.846,17.5128,,317.047,90.917,88.1309,,317.047,18.529,0.198714,19.8714,20.8259
326.132,12.206,15.6566,,326.132,83.823,84.635,,326.132,14.5616,0.18499,18.499,19.3846
335.243,11.839,12.6132,,335.243,85.728,84.8491,,335.243,13.81,0.148654,14.8654,17.1828
344.379,12.018,12.8581,,344.379,90.361,88.9045,,344.379,13.3,0.144629,14.4629,14.3204
353.539,14.488,12.9658,,353.539,94.915,90.7212,,353.539,15.2642,0.142919,14.2919,15.4424
362.725,19.187,17.4155,,362.725,105.458,101.011,,362.725,18.194,0.172412,17.2412,15.9119
371.936,16.284,14.9843,,371.936,109.783,107.973,,371.936,14.8329,0.138778,13.8778,15.9088
381.171,14.339,14.9082,,381.171,115.883,116.945,,381.171,12.3737,0.127481,12.7481,14.4322
390.432,20.106,16.5893,,390.432,133.324,125.547,,390.432,15.0806,0.132137,13.2137,14.1116
399.718,18.041,17.7514,,399.718,271.618,209.861,,399.718,6.64205,0.0845866,8.45866,11.5952
409.028,19.119,18.5512,,409.028,1127.772,761.961,,409.028,1.69529,0.0243466,2.43466,4.94281
418.364,19.53,19.5566,,418.364,5969.824,4031.16,,418.364,0.327145,0.00485136,0.485136,1.198
427.724,18.794,18.7785,,427.724,22181.078,16466.7,,427.724,0.0847299,0.00114039,0.114039,0.244128
437.108,13.995,17.2646,,437.108,53431.878,43460.3,,437.108,0.0261922,0.000397251,0.0397251,0.0690537
446.518,10.983,16.4058,,446.518,58872.93,60832.2,,446.518,0.0186554,0.000269689,0.0269689,0.0314135
455.952,20.277,17.069,,455.952,24818.261,33641.5,,455.952,0.0817019,0.000507381,0.0507381,0.0307463
465.411,12.088,13.8343,,465.411,10918.096,14323.3,,465.411,0.110715,0.00096586,0.096586,0.0710138
474.895,15.386,15.6699,,474.895,5687.357,6851.23,,474.895,0.27053,0.00228717,0.228717,0.154698
484.403,14.302,13.7454,,484.403,4392.566,4623.26,,484.403,0.325596,0.00297309,0.297309,0.249451
493.936,19.066,17.1478,,493.936,5936.261,5285.32,,493.936,0.321179,0.00324441,0.324441,0.325654
503.493,9.817,15.0866,,503.493,9922.655,8660.58,,503.493,0.0989352,0.00174199,0.174199,0.257007
513.074,16.126,15.1558,,513.074,14396.412,13119.2,,513.074,0.112014,0.00115524,0.115524,0.126535
522.681,13.089,17.8361,,522.681,17479.123,16689.3,,522.681,0.0748836,0.00106872,0.106872,0.118064
532.311,18.087,17.2875,,532.311,18600.635,18407,,532.311,0.0972386,0.000939181,0.0939181,0.0924635
541.966,11.029,14.8068,,541.966,18427.819,18537.4,,541.966,0.0598497,0.000798755,0.0798755,0.084358
551.645,10.073,13.8815,,551.645,17788.82,18021.6,,551.645,0.0566255,0.00077027,0.077027,0.0763455
561.348,19.637,15.561,,561.348,16724.541,17056.8,,561.348,0.117414,0.000912307,0.0912307,0.0783852
571.076,18.774,18.2957,,571.076,15394.578,15806.8,,571.076,0.121952,0.00115746,0.115746,0.109789
580.828,14.98,15.274,,580.828,13821.505,14293.2,,580.828,0.108382,0.00106862,0.106862,0.12253
590.604,65.518,40.1396,,590.604,12169.884,12655.7,,590.604,0.538362,0.00317165,0.317165,0.176431
600.404,382.736,264.239,,600.404,10382.228,10916.7,,600.404,3.68645,0.024205,2.4205,1.11565
610.229,940.18,772.237,,610.229,8596.69,9116.15,,610.229,10.9365,0.0847109,8.47109,5.14615
620.077,1375.094,1263.96,,620.077,6975.767,7436.56,,620.077,19.7124,0.169966,16.9966,12.703
629.949,1580.219,1541.46,,629.949,5497.842,5923.01,,629.949,28.7425,0.26025,26.025,21.5155
639.846,1579.306,1595.84,,639.846,4321.008,4660.02,,639.846,36.5495,0.342453,34.2453,30.2258
649.766,1454.263,1501.08,,649.766,3325.06,3607.88,,649.766,43.7364,0.416057,41.6057,37.9631
659.71,1251.211,1313.27,,659.71,2514.192,2739.29,,659.71,49.7659,0.47942,47.942,44.8498
669.678,1043.201,1096.07,,669.678,1870.294,2049.93,,669.678,55.7774,0.534688,53.4688,50.6553
679.67,824.06,884.103,,679.67,1395.385,1530.38,,679.67,59.0561,0.577702,57.7702,55.8593
689.686,635.923,688.617,,689.686,1030.916,1131.37,,689.686,61.6852,0.608658,60.8658,59.6338
699.726,487.13,532.302,,699.726,764.473,838.303,,699.726,63.721,0.634975,63.4975,62.2552
709.789,375.807,408.921,,709.789,577.389,628.873,,709.789,65.0873,0.650244,65.0244,64.2254
719.876,274.779,300.293,,719.876,428.379,473.778,,719.876,64.1439,0.633826,63.3826,64.2503
729.987,201.123,223.872,,729.987,333.968,355.893,,729.987,60.2222,0.629043,62.9043,64.0875
740.121,157.534,167.228,,740.121,271.067,284.973,,740.121,58.1163,0.586821,58.6821,60.8019
750.279,128.163,134.745,,750.279,223.903,238.327,,750.279,57.2404,0.565378,56.5378,57.9637
760.46,83.511,100.973,,760.46,181.555,197.796,,760.46,45.9976,0.510492,51.0492,54.4672
770.665,75.064,82.3956,,770.665,174.177,175.286,,770.665,43.0964,0.470065,47.0065,49.2591
780.894,58.591,63.9035,,780.894,155.909,157.51,,780.894,37.5803,0.405712,40.5712,43.5905
791.146,52.079,56.4092,,791.146,143.836,141.983,,791.146,36.2072,0.397296,39.7296,40.6814
801.421,42.454,46.3756,,801.421,122.665,127.915,,801.421,34.6097,0.36255,36.255,37.9912
811.72,34.328,34.4732,,811.72,128,126.885,,811.72,26.81875,0.271688,27.1688,31.2492
822.042,33.967,32.5661,,822.042,139.414,135.722,,822.042,24.3641,0.239947,23.9947,25.6965
832.387,34.55,34.9638,,832.387,198.763,181.776,,832.387,17.3825,0.192345,19.2345,21.8059
842.755,31.733,28.2085,,842.755,318.202,257.623,,842.755,9.9726,0.109495,10.9495,13.9895
853.147,30.801,30.4949,,853.147,680.258,570.882,,853.147,4.52784,0.0534172,5.34172,7.77706
863.562,19.582,24.9604,,863.562,914.45,865.153,,863.562,2.1414,0.0288509,2.88509,3.83986
874,16.074,18.6541,,874,1123.327,1042.42,,874,1.43093,0.017895,1.7895,2.22178
884.461,16.988,17.3668,,884.461,1549.531,1429.21,,884.461,1.09633,0.0121513,1.21513,1.41936
894.946,16.741,17.3788,,894.946,1601.912,1633.79,,894.946,1.04506,0.0106371,1.06371,1.03309
905.453,17.392,18.3807,,905.453,1154.569,1291.93,,905.453,1.50636,0.0142273,1.42273,1.24047
915.983,16.955,17.8944,,915.983,763.633,866.24,,915.983,2.22031,0.0206575,2.06575,1.76416
926.537,15.341,14.9573,,926.537,538.752,601.135,,926.537,2.84751,0.0248819,2.48819,2.25468
937.113,12.357,16.1244,,937.113,371.776,416.575,,937.113,3.32378,0.038707,3.8707,3.31879
947.712,18.186,18.5357,,947.712,281.795,301.161,,947.712,6.45363,0.0615476,6.15476,4.42137
958.334,13.554,15.153,,958.334,232.081,239.784,,958.334,5.8402,0.0631943,6.31943,5.97761
968.979,15.006,17.6767,,968.979,215.997,218.608,,968.979,6.94732,0.0808603,8.08603,6.52703
979.646,11.451,11.9699,,979.646,214.269,212.805,,979.646,5.34422,0.0562482,5.62482,7.15645
990.336,14.341,16.309,,990.336,255.716,241.973,,990.336,5.60817,0.0674001,6.74001,6.14604
1001.049,18.04,19.3746,,1001.049,294.155,280.773,,1001.049,6.13282,0.0690046,6.90046,6.3373
1011.785,24.093,19.7724,,1011.785,372.129,345.901,,1011.785,6.47437,0.0571622,5.71622,5.78279
1022.543,16.589,13.3512,,1022.543,511.912,472.99,,1022.543,3.2406,0.0282273,2.82273,4.24214
1033.324,13.709,13.1933,,1033.324,594.592,577.395,,1033.324,2.30561,0.0228496,2.28496,2.56427
1044.128,12.906,14.4607,,1044.128,615.351,612.954,,1044.128,2.09734,0.0235918,2.35918,2.2586
1054.954,11.087,10.9577,,1054.954,615.37,617.33,,1054.954,1.80168,0.0177502,1.77502,2.17898
1065.802,19.889,15.7405,,1065.802,591.191,598.552,,1065.802,3.36423,0.0262977,2.62977,2.07082
1076.673,7.581,10.9357,,1076.673,560.996,570.992,,1076.673,1.35135,0.0191521,1.91521,2.31601
1087.567,9.435,6.79468,,1087.567,529.782,540.523,,1087.567,1.78092,0.0125706,1.25706,1.43589
1098.461,12.267,15.432,,1098.461,506.368,516.098,,1098.461,2.42255,0.0299013,2.99013,2.13121
1109.207,10.985,10.1814,,1109.207,472.114,482.857,,1109.207,2.32677,0.0210859,2.10859,2.61131
1119.954,9.314,8.16565,,1119.954,442.11,453.073,,1119.954,2.10672,0.0180228,1.80228,1.94877
1130.7,13.344,11.8906,,1130.7,399.264,413.369,,1130.7,3.34215,0.0287652,2.87652,2.45609
1141.446,9.71,10.1977,,1141.446,355.303,369.536,,1141.446,2.73288,0.0275958,2.75958,2.7964
1152.192,5.775,8.82782,,1152.192,312.68,325.133,,1152.192,1.84694,0.0271514,2.71514,2.89353
1162.938,5.086,6.05786,,1162.938,272.396,284.362,,1162.938,1.86713,0.0213034,2.13034,2.51716
1173.684,11.554,7.19843,,1173.684,232.816,247.141,,1173.684,4.96272,0.0291268,2.91268,2.09743
1184.43,15.09,10.4578,,1184.43,212.854,220.644,,1184.43,7.08937,0.0473968,4.73968,4.151
1195.177,10.612,8.19683,,1195.177,189.605,196.165,,1195.177,5.5969,0.0417854,4.17854,4.01832
1205.923,12.581,9.71966,,1205.923,192.441,190.795,,1205.923,6.53759,0.0509429,5.09429,4.1278
1216.669,10.465,7.47194,,1216.669,160.555,172.299,,1216.669,6.51802,0.043366,4.3366,5.05169
1227.415,7.278,10.8041,,1227.415,108.596,121.133,,1227.415,6.7019,0.0891925,8.91925,6.4158
1238.161,12.129,9.64795,,1238.161,81.216,91.0173,,1238.161,14.9342,0.106001,10.6001,8.66785
1242.586,10.65,12.5423,,1242.586,69.901,79.3938,,1242.586,15.2358,0.157976,15.7976,