File: public_html/data/backup/schreiberglass-Orange_gelb_7860.csv
wavelength_nm,intensity,intensity_smoothed,,wavelength_nm2,intensity_i0,intensity_i0_smoothed,,wavelength_nm3,,transmission,transmission_perc,transmission_perc_smoothed
173.232,15.925,#N/A,,173.232,19.372,#N/A,,173.232,82.2063,#N/A,#N/A,#N/A
182.226,15.936,16.0033,,182.226,39.142,36.0714,,182.226,40.7133,0.443656,44.3656,#N/A
191.22,18.113,18.7372,,191.22,32.595,32.9671,,191.22,55.5699,0.568359,56.8359,55.6969
200.214,19.109,18.5573,,200.214,33.229,32.0517,,200.214,57.507,0.57898,57.898,53.7386
209.208,15.195,16.4765,,209.208,42.499,40.6429,,209.208,35.7538,0.405397,40.5397,48.8516
218.203,15.917,16.4102,,218.203,39.86,36.9478,,218.203,39.9323,0.444146,44.4146,45.855
227.197,17.912,16.591,,227.197,41.039,34.9444,,227.197,43.6463,0.474784,47.4784,48.7665
236.191,16.907,17.655,,236.191,38.855,38.0541,,236.191,43.5131,0.463944,46.3944,46.2636
245.185,29.084,25.4741,,245.185,60.852,56.5664,,245.185,47.7946,0.45034,45.034,46.7363
254.158,34.169,33.4803,,254.158,81.031,74.5507,,254.158,42.1678,0.449094,44.9094,46.7975
263.066,29.255,32.9654,,263.066,84.028,82.2669,,263.066,34.8158,0.400713,40.0713,42.7348
271.999,36.158,33.7734,,271.999,87.661,85.1956,,271.999,41.2475,0.396422,39.6422,39.2322
280.958,31.061,35.2224,,280.958,82.385,83.2013,,280.958,37.7023,0.42334,42.334,42.1924
289.943,36.146,35.0741,,289.943,81.564,82.6769,,289.943,44.3161,0.424231,42.4231,40.9315
298.952,30.049,32.4673,,298.952,81.833,83.2325,,298.952,36.7199,0.39008,39.008,41.2925
307.987,32.224,31.5861,,307.987,76.557,83.2263,,307.987,42.0915,0.37952,37.952,37.3917
317.047,33.581,33.2213,,317.047,90.917,88.1309,,317.047,36.9359,0.376955,37.6955,41.6737
326.132,33.847,33.5651,,326.132,83.823,84.635,,326.132,40.3791,0.396587,39.6587,39.2439
335.243,39.567,34.6545,,335.243,85.728,84.8491,,335.243,46.1541,0.408425,40.8425,39.9098
344.379,30.56,33.0674,,344.379,90.361,88.9045,,344.379,33.8199,0.371943,37.1943,40.1691
353.539,35.783,30.8354,,353.539,94.915,90.7212,,353.539,37.7,0.339892,33.9892,35.2465
362.725,38.74,37.0988,,362.725,105.458,101.011,,362.725,36.735,0.367276,36.7276,37.2177
371.936,38.609,38.3958,,371.936,109.783,107.973,,371.936,35.1685,0.355605,35.5605,37.2273
381.171,39.469,38.6505,,381.171,115.883,116.945,,381.171,34.0594,0.330503,33.0503,35.6199
390.432,44.627,41.0628,,390.432,133.324,125.547,,390.432,33.4726,0.327072,32.7072,33.2988
399.718,42.276,42.5858,,399.718,271.618,209.861,,399.718,15.5645,0.202924,20.2924,27.178
409.028,47.115,44.049,,409.028,1127.772,761.961,,409.028,4.17771,0.05781,5.781,11.9391
418.364,45.18,47.2526,,418.364,5969.824,4031.16,,418.364,0.756806,0.0117219,1.17219,2.9739
427.724,43.745,43.8045,,427.724,22181.078,16466.7,,427.724,0.197218,0.00266019,0.266019,0.583996
437.108,52.82,46.604,,437.108,53431.878,43460.3,,437.108,0.0988548,0.00107233,0.107233,0.167153
446.518,47.529,49.4488,,446.518,58872.93,60832.2,,446.518,0.0807315,0.000812872,0.0812872,0.0876453
455.952,48.289,49.3285,,455.952,24818.261,33641.5,,455.952,0.19457,0.0014663,0.14663,0.104592
465.411,43.072,45.1504,,465.411,10918.096,14323.3,,465.411,0.394501,0.00315224,0.315224,0.225914
474.895,49.226,48.3184,,474.895,5687.357,6851.23,,474.895,0.865534,0.00705252,0.705252,0.497419
484.403,63.904,57.1575,,484.403,4392.566,4623.26,,484.403,1.45482,0.012363,1.2363,0.995855
493.936,99.457,84.5477,,493.936,5936.261,5285.32,,493.936,1.67541,0.0159967,1.59967,1.45158
503.493,246.474,191.402,,503.493,9922.655,8660.58,,503.493,2.48395,0.0221004,2.21004,1.85135
513.074,594.614,471.03,,513.074,14396.412,13119.2,,513.074,4.13029,0.0359039,3.59039,2.82067
522.681,1274.952,1050.36,,522.681,17479.123,16689.3,,522.681,7.29414,0.062936,6.2936,4.83884
532.311,2326.669,1989.05,,532.311,18600.635,18407,,532.311,12.5085,0.10806,10.806,8.37137
541.966,3744.355,3299.25,,541.966,18427.819,18537.4,,541.966,20.319,0.177978,17.7978,14.1004
551.645,5529.819,4987.38,,551.645,17788.82,18021.6,,551.645,31.0859,0.276744,27.6744,22.5237
561.348,7417.136,6863.94,,561.348,16724.541,17056.8,,561.348,44.3488,0.402418,40.2418,33.7608
571.076,8893.668,8497.52,,571.076,15394.578,15806.8,,571.076,57.7714,0.537585,53.7585,47.0035
580.828,9585.233,9440.47,,580.828,13821.505,14293.2,,580.828,69.3501,0.660485,66.0485,60.1315
590.604,9455.484,9542.46,,590.604,12169.884,12655.7,,590.604,77.6958,0.754002,75.4002,70.9413
600.404,8748.44,8963.77,,600.404,10382.228,10916.7,,600.404,84.2636,0.821105,82.1105,78.8162
610.229,8237.695,8344.88,,610.229,8596.69,9116.15,,610.229,95.824,0.915395,91.5395,86.2959
620.077,7688.655,7911.62,,620.077,6975.767,7436.56,,620.077,110.219,1.06388,106.388,99.0953
629.949,6326.182,6745.88,,629.949,5497.842,5923.01,,629.949,115.067,1.13893,113.893,110.932
639.846,4954.582,5352.34,,639.846,4321.008,4660.02,,639.846,114.663,1.14857,114.857,114.761
649.766,3842.817,4156.08,,649.766,3325.06,3607.88,,649.766,115.571,1.15195,115.195,115.014
659.71,2921.885,3174.69,,659.71,2514.192,2739.29,,659.71,116.216,1.15894,115.894,115.467
669.678,2177.049,2380.2,,669.678,1870.294,2049.93,,669.678,116.401,1.16111,116.111,115.796
679.67,1597.799,1750.68,,679.67,1395.385,1530.38,,679.67,114.506,1.14395,114.395,115.355
689.686,1166.752,1283.39,,689.686,1030.916,1131.37,,689.686,113.176,1.13437,113.437,114.178
699.726,856.175,941.162,,699.726,764.473,838.303,,699.726,111.995,1.1227,112.27,112.89
709.789,621.416,683.731,,709.789,577.389,628.873,,709.789,107.625,1.08723,108.723,110.57
719.876,442.842,492.394,,719.876,428.379,473.778,,719.876,103.376,1.03929,103.929,106.731
729.987,329.566,358.503,,729.987,333.968,355.893,,729.987,98.6819,1.00733,100.733,103.158
740.121,253.186,271.005,,740.121,271.067,284.973,,740.121,93.4035,0.950984,95.0984,97.6642
750.279,198.527,210.409,,750.279,223.903,238.327,,750.279,88.6665,0.882858,88.2858,91.4163
760.46,145.016,157.787,,760.46,181.555,197.796,,760.46,79.8744,0.797723,79.7723,84.74
770.665,116.423,127.267,,770.665,174.177,175.286,,770.665,66.8418,0.726056,72.6056,77.4913
780.894,102.422,109.899,,780.894,155.909,157.51,,780.894,65.6934,0.69773,69.773,71.5751
791.146,92.165,91.4629,,791.146,143.836,141.983,,791.146,64.0764,0.644182,64.4182,65.7735
801.421,77.165,75.788,,801.421,122.665,127.915,,801.421,62.9071,0.592486,59.2486,62.4061
811.72,65.468,71.2694,,811.72,128,126.885,,811.72,51.1469,0.561684,56.1684,58.6985
822.042,59.941,60.2059,,822.042,139.414,135.722,,822.042,42.995,0.443597,44.3597,49.8301
832.387,56.402,60.4252,,832.387,198.763,181.776,,832.387,28.3765,0.332415,33.2415,39.4357
842.755,61.989,55.2228,,842.755,318.202,257.623,,842.755,19.481,0.214355,21.4355,26.2706
853.147,50.585,55.8262,,853.147,680.258,570.882,,853.147,7.43615,0.0977894,9.77894,14.9982
863.562,44.41,49.9729,,863.562,914.45,865.153,,863.562,4.85647,0.0577619,5.77619,7.55002
874,33.706,35.7939,,874,1123.327,1042.42,,874,3.00055,0.0343373,3.43373,4.40343
884.461,33.158,33.994,,884.461,1549.531,1429.21,,884.461,2.13987,0.0237851,2.37851,2.74791
894.946,38.742,38.1014,,894.946,1601.912,1633.79,,894.946,2.41848,0.0233209,2.33209,2.27223
905.453,39.826,40.2373,,905.453,1154.569,1291.93,,905.453,3.44943,0.031145,3.1145,2.67366
915.983,37.397,37.0948,,915.983,763.633,866.24,,915.983,4.89725,0.0428228,4.28228,3.6952
926.537,31.279,36.6473,,926.537,538.752,601.135,,926.537,5.80583,0.0609635,6.09635,5.22957
937.113,37.335,38.2905,,937.113,371.776,416.575,,937.113,10.0423,0.0919174,9.19174,7.37489
947.712,38.562,36.271,,947.712,281.795,301.161,,947.712,13.6844,0.120437,12.0437,10.4601
958.334,42.052,37.4347,,958.334,232.081,239.784,,958.334,18.1195,0.156118,15.6118,13.4564
968.979,41.984,41.4402,,968.979,215.997,218.608,,968.979,19.4373,0.189564,18.9564,17.2986
979.646,34.903,35.686,,979.646,214.269,212.805,,979.646,16.2893,0.167693,16.7693,18.4614
990.336,41.262,40.9026,,990.336,255.716,241.973,,990.336,16.1359,0.169038,16.9038,16.7912
1001.049,37.332,39.3917,,1001.049,294.155,280.773,,1001.049,12.6913,0.140297,14.0297,16.3271
1011.785,54.386,51.1611,,1011.785,372.129,345.901,,1011.785,14.6148,0.147907,14.7907,13.7447
1022.543,54.692,54.208,,1022.543,511.912,472.99,,1022.543,10.6839,0.114607,11.4607,12.9592
1033.324,59.25,60.5279,,1033.324,594.592,577.395,,1033.324,9.96482,0.104829,10.4829,10.8957
1044.128,70.967,70.6929,,1044.128,615.351,612.954,,1044.128,11.5328,0.115332,11.5332,11.2351
1054.954,88.112,83.9586,,1054.954,615.37,617.33,,1054.954,14.3185,0.136003,13.6003,12.5882
1065.802,100.775,97.7609,,1065.802,591.191,598.552,,1065.802,17.0461,0.163329,16.3329,14.8639
1076.673,113.77,111.59,,1076.673,560.996,570.992,,1076.673,20.28,0.195432,19.5432,18.0313
1087.567,125.276,121.528,,1087.567,529.782,540.523,,1087.567,23.6467,0.224834,22.4834,20.8935
1098.461,142.654,140.435,,1098.461,506.368,516.098,,1098.461,28.172,0.272109,27.2109,25.0042
1109.207,155.629,152.917,,1109.207,472.114,482.857,,1109.207,32.9643,0.316692,31.6692,29.0864
1119.954,170.925,167.15,,1119.954,442.11,453.073,,1119.954,38.6612,0.368924,36.8924,34.3243
1130.7,180.358,180.888,,1130.7,399.264,413.369,,1130.7,45.1726,0.437595,43.7595,40.3478
1141.446,173.653,176.533,,1141.446,355.303,369.536,,1141.446,48.8746,0.477715,47.7715,45.9199
1152.192,174.718,177.423,,1152.192,312.68,325.133,,1152.192,55.8776,0.545693,54.5693,51.0472
1162.938,160.283,167.781,,1162.938,272.396,284.362,,1162.938,58.8419,0.590026,59.0026,57.0558
1173.684,150.623,157.082,,1173.684,232.816,247.141,,1173.684,64.6962,0.635595,63.5595,60.9413
1184.43,144.472,143.48,,1184.43,212.854,220.644,,1184.43,67.8738,0.650278,65.0278,63.9018
1195.177,116.203,122.022,,1195.177,189.605,196.165,,1195.177,61.2869,0.622038,62.2038,64.1842
1205.923,102.015,107.978,,1205.923,192.441,190.795,,1205.923,53.0111,0.565938,56.5938,60.2734
1216.669,84.926,88.5065,,1216.669,160.555,172.299,,1216.669,52.8953,0.513679,51.3679,53.0913
1227.415,67.418,72.5375,,1227.415,108.596,121.133,,1227.415,62.0815,0.598827,59.8827,56.5887
1238.161,51.156,57.8532,,1238.161,81.216,91.0173,,1238.161,62.9876,0.635629,63.5629,63.2064
1242.586,54.388,53.4523,,1242.586,69.901,79.3938,,1242.586,77.8072,0.673255,67.3255,