File: public_html/data/backup/schreiberglass-Dunkel_Kobaltblau_7882.csv
wavelength_nm,intensity,intensity_smoothed,,wavelength_nm2,intensity_i0,intensity_i0_smoothed,,wavelength_nm3,,transmission,transmission_perc,transmission_perc_smoothed
173.232,1.319,#N/A,,173.232,19.372,#N/A,,173.232,6.8088,#N/A,#N/A,#N/A
182.226,7.622,7.8,,182.226,39.142,36.0714,,182.226,19.4727,0.216238,21.6238,#N/A
191.22,14.531,13.6712,,191.22,32.595,32.9671,,191.22,44.5805,0.414692,41.4692,29.589
200.214,9.258,10.5563,,200.214,33.229,32.0517,,200.214,27.8612,0.329351,32.9351,40.2732
209.208,15.348,16.0068,,209.208,42.499,40.6429,,209.208,36.1138,0.39384,39.384,32.6717
218.203,9.712,9.56174,,218.203,39.86,36.9478,,218.203,24.3653,0.258791,25.8791,31.6508
227.197,15.621,13.0113,,227.197,41.039,34.9444,,227.197,38.0638,0.372344,37.2344,25.1413
236.191,11.257,14.8501,,236.191,38.855,38.0541,,236.191,28.9718,0.390236,39.0236,33.4909
245.185,16.62,15.8238,,245.185,60.852,56.5664,,245.185,27.3122,0.279738,27.9738,29.6105
254.158,16.62,14.6298,,254.158,81.031,74.5507,,254.158,20.5107,0.19624,19.624,24.1108
263.066,25.983,20.837,,263.066,84.028,82.2669,,263.066,30.9218,0.253286,25.3286,23.7896
271.999,26.073,23.0175,,271.999,87.661,85.1956,,271.999,29.743,0.270172,27.0172,26.2937
280.958,20.709,17.8469,,280.958,82.385,83.2013,,280.958,25.1369,0.214503,21.4503,24.824
289.943,19.527,19.1593,,289.943,81.564,82.6769,,289.943,23.9407,0.231737,23.1737,21.2206
298.952,18.254,20.801,,298.952,81.833,83.2325,,298.952,22.3064,0.249914,24.9914,22.4378
307.987,17.799,17.2057,,307.987,76.557,83.2263,,307.987,23.2493,0.206734,20.6734,25.1576
317.047,19.981,19.1187,,317.047,90.917,88.1309,,317.047,21.9772,0.216935,21.6935,21.9242
326.132,20.889,19.6242,,326.132,83.823,84.635,,326.132,24.9204,0.231869,23.1869,23.2461
335.243,25.616,24.6499,,335.243,85.728,84.8491,,335.243,29.8806,0.290515,29.0515,25.7002
344.379,24.343,21.3598,,344.379,90.361,88.9045,,344.379,26.9397,0.240255,24.0255,26.0761
353.539,24.619,22.3296,,353.539,94.915,90.7212,,353.539,25.9379,0.246134,24.6134,25.1139
362.725,36.021,29.6891,,362.725,105.458,101.011,,362.725,34.1567,0.293921,29.3921,26.4636
371.936,35,30.6017,,371.936,109.783,107.973,,371.936,31.8811,0.283419,28.3419,29.5289
381.171,37.594,39.5962,,381.171,115.883,116.945,,381.171,32.4413,0.33859,33.859,31.8869
390.432,55.062,47.8799,,390.432,133.324,125.547,,390.432,41.2994,0.381372,38.1372,33.4424
399.718,168.306,118.056,,399.718,271.618,209.861,,399.718,61.9642,0.562545,56.2545,45.1113
409.028,835.077,552.609,,409.028,1127.772,761.961,,409.028,74.0466,0.725246,72.5246,65.4305
418.364,4124.612,2829.52,,418.364,5969.824,4031.16,,418.364,69.091,0.701913,70.1913,72.0733
427.724,13454.561,10279,,427.724,22181.078,16466.7,,427.724,60.6578,0.624232,62.4232,66.4184
437.108,28611.037,23833.7,,437.108,53431.878,43460.3,,437.108,53.5468,0.548401,54.8401,58.4594
446.518,29583.88,32261.6,,446.518,58872.93,60832.2,,446.518,50.2504,0.530338,53.0338,54.0095
455.952,9838.529,14442.2,,455.952,24818.261,33641.5,,455.952,39.6423,0.429296,42.9296,47.7298
465.411,3300.758,4852.32,,465.411,10918.096,14323.3,,465.411,30.232,0.338772,33.8772,38.5179
474.895,1087.773,1578.27,,474.895,5687.357,6851.23,,474.895,19.1262,0.230362,23.0362,28.612
484.403,467.131,609.86,,484.403,4392.566,4623.26,,484.403,10.6346,0.131911,13.1911,17.9095
493.936,316.479,345.083,,493.936,5936.261,5285.32,,493.936,5.33129,0.0652908,6.52908,9.56826
503.493,274.491,289.524,,503.493,9922.655,8660.58,,503.493,2.76631,0.0334301,3.34301,4.79526
513.074,168.544,193.995,,513.074,14396.412,13119.2,,513.074,1.17074,0.0147871,1.47871,2.31508
522.681,104.33,124.073,,522.681,17479.123,16689.3,,522.681,0.596883,0.00743431,0.743431,1.07152
532.311,69.189,80.0143,,532.311,18600.635,18407,,532.311,0.371971,0.00434694,0.434694,0.556104
541.966,90.662,82.1894,,541.966,18427.819,18537.4,,541.966,0.491984,0.00443371,0.443371,0.411405
551.645,142.26,123.758,,551.645,17788.82,18021.6,,551.645,0.799716,0.00686718,0.686718,0.545077
561.348,160.355,163.757,,561.348,16724.541,17056.8,,561.348,0.958801,0.00960068,0.960068,0.849911
571.076,78.784,95.4848,,571.076,15394.578,15806.8,,571.076,0.511765,0.00604073,0.604073,0.811134
580.828,34.605,42.8313,,580.828,13821.505,14293.2,,580.828,0.250371,0.00299661,0.299661,0.433193
590.604,23.809,25.0874,,590.604,12169.884,12655.7,,590.604,0.195639,0.00198229,0.198229,0.238043
600.404,29.517,23.9285,,600.404,10382.228,10916.7,,600.404,0.284303,0.00219191,0.219191,0.202323
610.229,27.343,24.7558,,610.229,8596.69,9116.15,,610.229,0.318064,0.0027156,0.27156,0.245841
620.077,20.608,26.6717,,620.077,6975.767,7436.56,,620.077,0.295423,0.00358657,0.358657,0.336045
629.949,21.752,22.3538,,629.949,5497.842,5923.01,,629.949,0.395646,0.00377406,0.377406,0.354355
639.846,19.523,17.5557,,639.846,4321.008,4660.02,,639.846,0.451816,0.00376731,0.376731,0.368709
649.766,30.461,22.9355,,649.766,3325.06,3607.88,,649.766,0.916104,0.00635706,0.635706,0.469098
659.71,25.023,23.2233,,659.71,2514.192,2739.29,,659.71,0.99527,0.00847786,0.847786,0.797938
669.678,32.776,27.207,,669.678,1870.294,2049.93,,669.678,1.75245,0.0132722,1.32722,1.05808
679.67,38.033,32.1476,,679.67,1395.385,1530.38,,679.67,2.72563,0.0210063,2.10063,1.66893
689.686,93.379,75.2108,,689.686,1030.916,1131.37,,689.686,9.05787,0.0664777,6.64777,4.05542
699.726,168.517,147.683,,699.726,764.473,838.303,,699.726,22.0436,0.176169,17.6169,11.5914
709.789,198.733,196.054,,709.789,577.389,628.873,,709.789,34.4193,0.311754,31.1754,24.5656
719.876,187.298,188.382,,719.876,428.379,473.778,,719.876,43.7225,0.397617,39.7617,35.7026
729.987,141.331,153.495,,729.987,333.968,355.893,,729.987,42.3187,0.431296,43.1296,42.7715
740.121,112.005,121.615,,740.121,271.067,284.973,,740.121,41.32,0.426758,42.6758,43.1614
750.279,92.866,98.4835,,750.279,223.903,238.327,,750.279,41.476,0.413229,41.3229,42.3365
760.46,67.487,72.321,,760.46,181.555,197.796,,760.46,37.1717,0.365634,36.5634,39.2796
770.665,55.929,61.1932,,770.665,174.177,175.286,,770.665,32.1104,0.349106,34.9106,36.5561
780.894,45.978,52.2153,,780.894,155.909,157.51,,780.894,29.4903,0.331505,33.1505,33.5615
791.146,48.039,44.4666,,791.146,143.836,141.983,,791.146,33.3985,0.313183,31.3183,31.8306
801.421,37.758,37.4148,,801.421,122.665,127.915,,801.421,30.7814,0.292497,29.2497,30.394
811.72,36.922,39.0611,,811.72,128,126.885,,811.72,28.8453,0.307846,30.7846,30.6794
822.042,58.251,48.2876,,822.042,139.414,135.722,,822.042,41.7827,0.355783,35.5783,32.2099
832.387,88.489,77.5265,,832.387,198.763,181.776,,832.387,44.5199,0.426494,42.6494,39.4676
842.755,163.602,125.678,,842.755,318.202,257.623,,842.755,51.4145,0.487836,48.7836,44.9166
853.147,350.842,298.071,,853.147,680.258,570.882,,853.147,51.5748,0.522124,52.2124,50.9442
863.562,461.135,440.393,,863.562,914.45,865.153,,863.562,50.4276,0.509035,50.9035,51.6656
874,536.465,506.085,,874,1123.327,1042.42,,874,47.7568,0.48549,48.549,49.9062
884.461,689.754,646.396,,884.461,1549.531,1429.21,,884.461,44.5137,0.452274,45.2274,46.7992
894.946,674.748,700.925,,894.946,1601.912,1633.79,,894.946,42.1214,0.429019,42.9019,44.0485
905.453,442.794,511.257,,905.453,1154.569,1291.93,,905.453,38.3515,0.395731,39.5731,41.1994
915.983,264.05,309.698,,915.983,763.633,866.24,,915.983,34.5781,0.35752,35.752,37.6286
926.537,163.225,189.635,,926.537,538.752,601.135,,926.537,30.2969,0.315461,31.5461,33.6456
937.113,90.218,106.557,,937.113,371.776,416.575,,937.113,24.2668,0.255794,25.5794,28.5829
947.712,51.937,65.5278,,947.712,281.795,301.161,,947.712,18.4308,0.217584,21.7584,23.7167
958.334,37.565,45.1615,,958.334,232.081,239.784,,958.334,16.1862,0.188342,18.8342,19.7219
968.979,30.101,34.8822,,968.979,215.997,218.608,,968.979,13.9358,0.159565,15.9565,16.8977
979.646,28.272,27.6674,,979.646,214.269,212.805,,979.646,13.1946,0.130013,13.0013,13.7747
990.336,22.08,26.101,,990.336,255.716,241.973,,990.336,8.63458,0.107867,10.7867,12.2331
1001.049,24.977,23.7033,,1001.049,294.155,280.773,,1001.049,8.4911,0.0844217,8.44217,9.44226
1011.785,17.873,22.6228,,1011.785,372.129,345.901,,1011.785,4.8029,0.0654026,6.54026,8.08354
1022.543,23.677,21.494,,1022.543,511.912,472.99,,1022.543,4.62521,0.0454429,4.54429,4.98033
1033.324,16.207,17.4842,,1033.324,594.592,577.395,,1033.324,2.72573,0.0302812,3.02812,3.81073
1044.128,26.191,22.6299,,1044.128,615.351,612.954,,1044.128,4.25627,0.0369194,3.69194,3.20364
1054.954,15.536,14.4758,,1054.954,615.37,617.33,,1054.954,2.52466,0.0234491,2.34491,3.07894
1065.802,16.425,18.3334,,1065.802,591.191,598.552,,1065.802,2.77829,0.0306296,3.06296,2.83794
1076.673,18.404,22.0407,,1076.673,560.996,570.992,,1076.673,3.28059,0.0386008,3.86008,3.00014
1087.567,15.38,15.6505,,1087.567,529.782,540.523,,1087.567,2.90308,0.0289545,2.89545,3.07571
1098.461,19.718,16.4027,,1098.461,506.368,516.098,,1098.461,3.89401,0.0317821,3.17821,2.83033
1109.207,21.962,20.3596,,1109.207,472.114,482.857,,1109.207,4.65184,0.0421648,4.21648,3.57823
1119.954,18.477,15.6559,,1119.954,442.11,453.073,,1119.954,4.17928,0.0345549,3.45549,3.72496
1130.7,17.08,18.2787,,1130.7,399.264,413.369,,1130.7,4.27787,0.0442189,4.42189,4.16302
1141.446,15.589,16.2571,,1141.446,355.303,369.536,,1141.446,4.38752,0.0439931,4.39931,4.04251
1152.192,21.914,17.4457,,1152.192,312.68,325.133,,1152.192,7.00844,0.053657,5.3657,4.6099
1162.938,18.963,16.8247,,1162.938,272.396,284.362,,1162.938,6.96156,0.0591666,5.91666,5.61577
1173.684,12.283,12.7976,,1173.684,232.816,247.141,,1173.684,5.27584,0.0517825,5.17825,5.79213
1184.43,19.327,14.596,,1184.43,212.854,220.644,,1184.43,9.07993,0.0661516,6.61516,6.09396
1195.177,14.007,15.4872,,1195.177,189.605,196.165,,1195.177,7.38746,0.0789501,7.89501,8.15746
1205.923,29.594,27.7188,,1205.923,192.441,190.795,,1205.923,15.3782,0.14528,14.528,10.5014
1216.669,29.728,32.9894,,1216.669,160.555,172.299,,1216.669,18.5158,0.191466,19.1466,17.6806
1227.415,15.137,19.9486,,1227.415,108.596,121.133,,1227.415,13.9388,0.164684,16.4684,17.7282
1238.161,12.277,11.6238,,1238.161,81.216,91.0173,,1238.161,15.1165,0.12771,12.771,13.0786
1242.586,3.248,10.6751,,1242.586,69.901,79.3938,,1242.586,4.64657,0.134458,13.4458,