File: public_html/data/backup/schreiberglass-Hell_Kupferblau_7881.csv
wavelength_nm,intensity,intensity_smoothed,,wavelength_nm2,intensity_i0,intensity_i0_smoothed,,wavelength_nm3,,transmission,transmission_perc,transmission_perc_smoothed
173.232,27.939,#N/A,,173.232,19.372,#N/A,,173.232,144.224,#N/A,#N/A,#N/A
182.226,35.223,36.7429,,182.226,39.142,36.0714,,182.226,89.9877,1.01862,101.862,#N/A
191.22,31.492,32.4615,,191.22,32.595,32.9671,,191.22,96.616,0.984661,98.4661,100.134
200.214,31.851,35.0056,,200.214,33.229,32.0517,,200.214,95.853,1.09216,109.216,105.24
209.208,33.756,34.4145,,209.208,42.499,40.6429,,209.208,79.4278,0.846754,84.6754,93.1536
218.203,36.115,33.1912,,218.203,39.86,36.9478,,218.203,90.6046,0.898328,89.8328,87.6339
227.197,37.837,35.293,,227.197,41.039,34.9444,,227.197,92.1977,1.00998,100.998,97.5691
236.191,42.923,39.2285,,236.191,38.855,38.0541,,236.191,110.47,1.03086,103.086,96.6711
245.185,51.646,46.1463,,245.185,60.852,56.5664,,245.185,84.8715,0.815791,81.5791,89.6026
254.158,52.913,56.8894,,254.158,81.031,74.5507,,254.158,65.2997,0.763098,76.3098,81.1069
263.066,64.453,62.1864,,263.066,84.028,82.2669,,263.066,76.7042,0.755911,75.5911,75.2398
271.999,63.994,60.3745,,271.999,87.661,85.1956,,271.999,73.0017,0.708657,70.8657,75.0842
280.958,63.624,63.1335,,280.958,82.385,83.2013,,280.958,77.2277,0.758805,75.8805,74.9529
289.943,60.8,59.0633,,289.943,81.564,82.6769,,289.943,74.5427,0.714387,71.4387,73.0119
298.952,67.613,64.8363,,298.952,81.833,83.2325,,298.952,82.6231,0.778978,77.8978,75.2634
307.987,55.607,60.6564,,307.987,76.557,83.2263,,307.987,72.6348,0.728812,72.8812,78.3086
317.047,64.51,63.6019,,317.047,90.917,88.1309,,317.047,70.9548,0.721676,72.1676,74.3037
326.132,63.685,65.1031,,326.132,83.823,84.635,,326.132,75.9756,0.769222,76.9222,74.0501
335.243,68.587,68.2493,,335.243,85.728,84.8491,,335.243,80.0054,0.804361,80.4361,77.4135
344.379,74.762,73.6371,,344.379,90.361,88.9045,,344.379,82.737,0.828272,82.8272,80.0247
353.539,75.205,74.6678,,353.539,94.915,90.7212,,353.539,79.2341,0.823047,82.3047,80.7004
362.725,91.593,84.0759,,362.725,105.458,101.011,,362.725,86.8526,0.832347,83.2347,81.5426
371.936,91.828,86.6419,,371.936,109.783,107.973,,371.936,83.645,0.802438,80.2438,83.7269
381.171,100.127,101.162,,381.171,115.883,116.945,,381.171,86.4035,0.865046,86.5046,84.8659
390.432,122.125,114.709,,390.432,133.324,125.547,,390.432,91.6002,0.913674,91.3674,87.851
399.718,265.575,205.246,,399.718,271.618,209.861,,399.718,97.7752,0.978007,97.8007,95.1033
409.028,1155.784,778.184,,409.028,1127.772,761.961,,409.028,102.484,1.02129,102.129,99.9303
418.364,6032.449,4081.68,,418.364,5969.824,4031.16,,418.364,101.049,1.01253,101.253,101.795
427.724,22202.609,16513.9,,427.724,22181.078,16466.7,,427.724,100.097,1.00287,100.287,100.707
437.108,52984.207,43157.9,,437.108,53431.878,43460.3,,437.108,99.1622,0.993041,99.3041,99.7847
446.518,58970.922,60765.5,,446.518,58872.93,60832.2,,446.518,100.166,0.998904,99.8904,99.4903
455.952,25120.835,34007.9,,455.952,24818.261,33641.5,,455.952,101.219,1.01089,101.089,100.524
465.411,10938.088,14398.4,,465.411,10918.096,14323.3,,465.411,100.183,1.00525,100.525,100.941
474.895,5542.717,6745.25,,474.895,5687.357,6851.23,,474.895,97.4568,0.984531,98.4531,99.7181
484.403,4098.572,4392.13,,484.403,4392.566,4623.26,,484.403,93.307,0.950008,95.0008,96.9071
493.936,5199.993,4719.22,,493.936,5936.261,5285.32,,493.936,87.5971,0.892892,89.2892,92.2295
503.493,8140.162,7225.95,,503.493,9922.655,8660.58,,503.493,82.0361,0.834349,83.4349,86.3537
513.074,10915.81,10160.6,,513.074,14396.412,13119.2,,513.074,75.8231,0.774488,77.4488,80.4521
522.681,12107.225,11886.1,,522.681,17479.123,16689.3,,522.681,69.2668,0.712198,71.2198,74.383
532.311,11796.285,11979.9,,532.311,18600.635,18407,,532.311,63.4187,0.650833,65.0833,68.0596
541.966,10870.691,11153.2,,541.966,18427.819,18537.4,,541.966,58.9907,0.601658,60.1658,62.5207
551.645,9824.172,10153.8,,551.645,17788.82,18021.6,,551.645,55.2267,0.563422,56.3422,58.2513
561.348,8267.177,8749.25,,561.348,16724.541,17056.8,,561.348,49.4314,0.512949,51.2949,53.9834
571.076,6379.923,6949.51,,571.076,15394.578,15806.8,,571.076,41.4427,0.439652,43.9652,47.7673
580.828,4637.508,5136.91,,580.828,13821.505,14293.2,,580.828,33.5528,0.359394,35.9394,39.9524
590.604,3286.088,3640.6,,590.604,12169.884,12655.7,,590.604,27.0018,0.287664,28.7664,32.1631
600.404,2409.436,2649.05,,600.404,10382.228,10916.7,,600.404,23.2073,0.24266,24.266,26.3565
610.229,1720.56,1910.3,,610.229,8596.69,9116.15,,610.229,20.0142,0.209551,20.9551,22.5721
620.077,1198.837,1343.39,,620.077,6975.767,7436.56,,620.077,17.1857,0.180647,18.0647,19.5406
629.949,801.4,913.309,,629.949,5497.842,5923.01,,629.949,14.5766,0.154197,15.4197,16.7694
639.846,546.41,615.641,,639.846,4321.008,4660.02,,639.846,12.6454,0.132111,13.2111,14.2926
649.766,389.1,430.313,,649.766,3325.06,3607.88,,649.766,11.702,0.11927,11.927,12.5148
659.71,285.125,315.1,,659.71,2514.192,2739.29,,659.71,11.3406,0.11503,11.503,11.6618
669.678,220.144,235.217,,669.678,1870.294,2049.93,,669.678,11.7706,0.114744,11.4744,11.4205
679.67,174.64,187.913,,679.67,1395.385,1530.38,,679.67,12.5155,0.122788,12.2788,11.7789
689.686,153.416,158.406,,689.686,1030.916,1131.37,,689.686,14.8815,0.140013,14.0013,13.031
699.726,126.82,129.822,,699.726,764.473,838.303,,699.726,16.5892,0.154862,15.4862,14.6796
709.789,105.857,113.1,,709.789,577.389,628.873,,709.789,18.3337,0.179845,17.9845,16.8584
719.876,93.048,100.125,,719.876,428.379,473.778,,719.876,21.721,0.211333,21.1333,19.3729
729.987,89.064,90.3141,,729.987,333.968,355.893,,729.987,26.6684,0.253767,25.3767,23.1547
740.121,79.632,83.6203,,740.121,271.067,284.973,,740.121,29.3772,0.293432,29.3432,27.0378
750.279,81.983,83.5265,,750.279,223.903,238.327,,750.279,36.6154,0.35047,35.047,32.276
760.46,87.322,87.0549,,760.46,181.555,197.796,,760.46,48.0967,0.440124,44.0124,39.1815
770.665,83.5,84.4594,,770.665,174.177,175.286,,770.665,47.9397,0.481839,48.1839,47.8613
780.894,87.727,84.9854,,780.894,155.909,157.51,,780.894,56.2681,0.539557,53.9557,50.9541
791.146,80.053,78.1994,,791.146,143.836,141.983,,791.146,55.6557,0.550766,55.0766,56.3589
801.421,78.08,76.9967,,801.421,122.665,127.915,,801.421,63.653,0.601936,60.1936,58.2099
811.72,81.099,79.5723,,811.72,128,126.885,,811.72,63.3586,0.627121,62.7121,62.7815
822.042,106.121,100.747,,822.042,139.414,135.722,,822.042,76.1193,0.742306,74.2306,67.2575
832.387,150.379,139.781,,832.387,198.763,181.776,,832.387,75.6574,0.768971,76.8971,76.444
842.755,277.289,219.07,,842.755,318.202,257.623,,842.755,87.1424,0.850352,85.0352,79.1296
853.147,605.254,502.672,,853.147,680.258,570.882,,853.147,88.9742,0.880518,88.0518,86.0142
863.562,813.321,765.974,,863.562,914.45,865.153,,863.562,88.941,0.885363,88.5363,88.4404
874,1017.693,940.041,,874,1123.327,1042.42,,874,90.5963,0.901788,90.1788,89.3584
884.461,1396.468,1284.33,,884.461,1549.531,1429.21,,884.461,90.122,0.898623,89.8623,89.8377
894.946,1457.371,1485.52,,894.946,1601.912,1633.79,,894.946,90.977,0.909248,90.9248,90.5114
905.453,1056.807,1182.15,,905.453,1154.569,1291.93,,905.453,91.5326,0.915023,91.5023,91.1027
915.983,688.892,786.693,,915.983,763.633,866.24,,915.983,90.2124,0.90817,90.817,91.422
926.537,484.054,542.468,,926.537,538.752,601.135,,926.537,89.8473,0.902407,90.2407,90.6288
937.113,321.208,367.373,,937.113,371.776,416.575,,937.113,86.3983,0.881891,88.1891,89.3052
947.712,239.807,257.927,,947.712,281.795,301.161,,947.712,85.0998,0.856443,85.6443,86.097
958.334,188.214,198.149,,958.334,232.081,239.784,,958.334,81.0984,0.826363,82.6363,84.1412
968.979,169.701,174.474,,968.979,215.997,218.608,,968.979,78.5664,0.798115,79.8115,80.7227
979.646,171.539,169.272,,979.646,214.269,212.805,,979.646,80.0578,0.795432,79.5432,79.8044
990.336,197.637,188.182,,990.336,255.716,241.973,,990.336,77.2877,0.777696,77.7696,77.9197
1001.049,227.446,216.839,,1001.049,294.155,280.773,,1001.049,77.3218,0.772292,77.2292,77.4664
1011.785,274.058,255.714,,1011.785,372.129,345.901,,1011.785,73.646,0.739268,73.9268,75.7647
1022.543,363.833,338.899,,1022.543,511.912,472.99,,1022.543,71.0733,0.716503,71.6503,72.5873
1033.324,417.316,402.882,,1033.324,594.592,577.395,,1033.324,70.1853,0.697758,69.7758,70.6748
1044.128,407.776,410.994,,1044.128,615.351,612.954,,1044.128,66.2672,0.670514,67.0514,68.9095
1054.954,386.667,393.447,,1054.954,615.37,617.33,,1054.954,62.8349,0.637336,63.7336,65.4767
1065.802,360.44,369.449,,1065.802,591.191,598.552,,1065.802,60.9685,0.617237,61.7237,62.5087
1076.673,327.093,338.112,,1076.673,560.996,570.992,,1076.673,58.3058,0.592148,59.2148,60.5257
1087.567,309.896,317.28,,1087.567,529.782,540.523,,1087.567,58.495,0.586987,58.6987,59.0328
1098.461,290.846,298.749,,1098.461,506.368,516.098,,1098.461,57.4377,0.578861,57.8861,58.6636
1109.207,262.031,273.094,,1109.207,472.114,482.857,,1109.207,55.5016,0.565579,56.5579,57.5083
1119.954,242.176,247.191,,1119.954,442.11,453.073,,1119.954,54.7773,0.545588,54.5588,55.4318
1130.7,207.551,218.132,,1130.7,399.264,413.369,,1130.7,51.9834,0.527694,52.7694,53.7218
1141.446,176.336,188.848,,1141.446,355.303,369.536,,1141.446,49.6298,0.511041,51.1041,52.1598
1152.192,146.168,156.436,,1152.192,312.68,325.133,,1152.192,46.7468,0.481145,48.1145,49.6867
1162.938,122.229,124.667,,1162.938,272.396,284.362,,1162.938,44.8718,0.438411,43.8411,45.71
1173.684,98.613,105.449,,1173.684,232.816,247.141,,1173.684,42.3566,0.426675,42.6675,43.404
1184.43,85.963,88.6915,,1184.43,212.854,220.644,,1184.43,40.3859,0.401966,40.1966,41.5203
1195.177,83.379,83.5676,,1195.177,189.605,196.165,,1195.177,43.9751,0.426007,42.6007,41.1579
1205.923,98.239,93.7743,,1205.923,192.441,190.795,,1205.923,51.0489,0.491492,49.1492,44.9442
1216.669,75.289,87.693,,1216.669,160.555,172.299,,1216.669,46.893,0.508958,50.8958,50.9902
1227.415,38.917,48.7044,,1227.415,108.596,121.133,,1227.415,35.8365,0.402075,40.2075,46.673
1238.161,28.697,34.8147,,1238.161,81.216,91.0173,,1238.161,35.3342,0.382507,38.2507,38.1871
1242.586,25.639,29.8245,,1242.586,69.901,79.3938,,1242.586,36.679,0.375652,37.5652,