File: public_html/data/backup/schreiberglass-Kobaltblau_7884.csv
wavelength_nm,intensity,intensity_smoothed,,wavelength_nm2,intensity_i0,intensity_i0_smoothed,,wavelength_nm3,,transmission,transmission_perc,transmission_perc_smoothed
173.232,21.748,#N/A,,173.232,19.372,#N/A,,173.232,112.265,#N/A,#N/A,#N/A
181.961,40.186,39.5456,,181.961,39.688,35.6696,,181.961,101.255,1.10866,110.866,#N/A
190.691,42.094,41.4938,,190.691,32.868,32.968,,190.691,128.07,1.25861,125.861,118.293
199.421,38.546,41.8763,,199.421,31.32,32.0819,,199.421,123.072,1.3053,130.53,123.987
208.15,36.818,42.2414,,208.15,45.317,38.5951,,208.15,81.2454,1.09448,109.448,123.116
216.88,39.18,38.677,,216.88,36.86,35.8001,,216.88,106.294,1.08036,108.036,102.723
225.609,44.269,43.038,,225.609,34.312,31.5492,,225.609,129.019,1.36415,136.415,118.218
234.339,46.449,43.3097,,234.339,39.219,37.2061,,234.339,118.435,1.16405,116.405,118.83
243.069,53.447,52.9497,,243.069,59.58,53.5018,,243.069,89.7063,0.989681,98.9681,112.295
251.798,58.082,57.707,,251.798,74.486,70.1188,,251.798,77.9771,0.822989,82.2989,91.1473
260.443,67.625,63.9921,,260.443,79.12,78.9297,,260.443,85.4714,0.810747,81.0747,80.18
269.106,71.714,71.0374,,269.106,83.208,83.0337,,269.106,86.1864,0.855525,85.5525,81.0142
277.794,66.167,68.6473,,277.794,84.114,81.9156,,277.794,78.6635,0.838024,83.8024,83.9839
286.505,76.165,76.0001,,286.505,81.929,85.3193,,286.505,92.9646,0.890773,89.0773,85.3384
295.239,74.163,76.7503,,295.239,88.835,84.634,,295.239,83.484,0.90685,90.685,91.0827
303.998,79.888,79.9282,,303.998,87.195,83.8042,,303.998,91.6199,0.953749,95.3749,90.7169
312.78,79.522,78.7396,,312.78,82.374,81.1504,,312.78,96.5377,0.970293,97.0293,95.5091
321.587,86.156,86.5081,,321.587,83.734,87.5099,,321.587,102.892,0.988552,98.8552,95.6647
330.417,96.608,92.7236,,330.417,85.821,86.6046,,330.417,112.569,1.07065,107.065,102.352
339.27,95.151,95.5487,,339.27,88.272,86.7717,,339.27,107.793,1.10115,110.115,110.955
348.148,114.644,107.978,,348.148,92.579,89.4024,,348.148,123.834,1.20778,120.778,114.98
357.048,127.855,124.472,,357.048,99.65,95.0671,,357.048,128.304,1.3093,130.93,126.492
365.973,160.239,150.918,,365.973,103.627,103.014,,365.973,154.631,1.46502,146.502,137.387
374.921,192.71,181.466,,374.921,108.238,107.211,,374.921,178.043,1.69261,169.261,155.877
383.893,223.528,217.5,,383.893,116.93,117.368,,383.893,191.164,1.85315,185.315,176.518
392.888,325.857,290.95,,392.888,145.835,132.624,,392.888,223.442,2.1938,219.38,198.173
401.906,754.906,572.214,,401.906,355.95,266.798,,401.906,212.082,2.14474,214.474,220.028
410.948,3121.824,2121.83,,410.948,1607.805,1068.2,,410.948,194.167,1.98636,198.636,207.63
420.014,14096.898,9755.42,,420.014,7809.094,5328.01,,420.014,180.519,1.83097,183.097,190.382
429.102,62552.807,50073.6,,429.102,25808.548,19452.9,,429.102,242.372,2.5741,257.41,203.62
438.214,64000,63500.2,,438.214,57208.443,47436.7,,438.214,111.872,1.33863,133.863,196.337
447.35,61649.181,62829.7,,447.35,56732.386,60107.4,,447.35,108.667,1.04529,104.529,112.64
456.508,34154.938,44680.2,,456.508,23524.272,31899.4,,456.508,145.19,1.40066,140.066,122.057
465.69,13835.85,18922.3,,465.69,10663.054,13982.8,,465.69,129.755,1.35326,135.326,139.634
474.895,6038.952,7887.11,,474.895,5687.357,6851.23,,474.895,106.182,1.1512,115.12,126.321
484.123,3596.342,4183.71,,484.123,4395.281,4648.59,,484.123,81.8228,0.899996,89.9996,102.925
493.374,3417.165,3368.67,,493.374,5767.024,5161.78,,493.374,59.2535,0.652618,65.2618,77.7701
502.649,4125.843,3931.89,,502.649,9517.395,8288.4,,502.649,43.3505,0.474384,47.4384,56.1235
511.946,4165.401,4178.58,,511.946,13902.87,12602.5,,511.946,29.9607,0.331569,33.1569,40.2449
521.266,3705.699,3878.2,,521.266,17140.791,16271.5,,521.266,21.6192,0.238343,23.8343,28.3654
530.61,3076.215,3241.1,,530.61,18560.774,18257.4,,530.61,16.5737,0.177522,17.7522,20.6322
539.976,3028.872,2995.59,,539.976,18550.811,18579.2,,539.976,16.3274,0.161233,16.1233,16.6275
549.365,3688.472,3460.06,,549.365,18001.624,18180.9,,549.365,20.4897,0.190312,19.0312,17.242
558.777,3981.845,3982.27,,558.777,17024.147,17349.4,,558.777,23.3894,0.229533,22.9533,21.1828
568.212,2873.84,3269.97,,568.212,15822.297,16208.1,,568.212,18.1632,0.20175,20.175,22.1669
577.67,1481.599,1874.08,,577.67,14345.547,14781.8,,577.67,10.3279,0.126783,12.6783,16.6123
587.151,700.443,895.25,,587.151,12774.55,13247.5,,587.151,5.48311,0.0675788,6.75788,9.53955
596.654,513.818,553.082,,596.654,11084.794,11584.1,,596.654,4.63534,0.0477449,4.77449,5.51536
606.18,470.007,484.637,,606.18,9317.927,9855.14,,606.18,5.04412,0.0491761,4.91761,4.79132
615.729,412.783,434.788,,615.729,7646.662,8140.66,,615.729,5.39821,0.0534094,5.34094,5.125
625.3,339.557,368.662,,625.3,6183.506,6601.85,,625.3,5.49133,0.0558422,5.58422,5.47992
634.895,237.994,265.236,,634.895,4900.765,5253.34,,634.895,4.85626,0.050489,5.0489,5.35181
644.511,200.15,212.76,,644.511,3830.993,4138.49,,644.511,5.22449,0.0514101,5.14101,5.03403
654.15,186.166,191.84,,654.15,2946.39,3206.86,,654.15,6.31844,0.0598216,5.98216,5.47675
663.812,199.221,192.765,,663.812,2235.186,2440.34,,663.812,8.91295,0.0789909,7.89909,6.81678
673.496,221.992,215.753,,673.496,1680.519,1832.89,,673.496,13.2097,0.117712,11.7712,9.61515
683.203,283.124,266.555,,683.203,1254.116,1371.04,,683.203,22.5756,0.194418,19.4418,15.0739
692.932,339.518,323.781,,692.932,938.84,1027.26,,692.932,36.1636,0.31519,31.519,24.9005
702.683,334.064,341.506,,702.683,703.713,770.784,,702.683,47.4716,0.443062,44.3062,38.0487
712.457,293.421,308.416,,712.457,535.449,583.869,,712.457,54.7991,0.528227,52.8227,48.4274
722.253,235.293,255.448,,722.253,394.064,437.544,,722.253,59.7093,0.583822,58.3822,55.4995
732.071,193.338,207.861,,732.071,315.024,340.203,,732.071,61.3725,0.61099,61.099,60.0632
741.912,168.15,171.938,,741.912,260.389,276.924,,741.912,64.5765,0.620886,62.0886,61.2351
751.775,144.59,151.408,,751.775,220.625,232.002,,751.775,65.5365,0.652616,65.2616,63.9045
761.66,142.353,141.667,,761.66,175.544,191.152,,761.66,81.0925,0.741123,74.1123,67.5851
771.567,133.359,138.377,,771.567,170.889,174.768,,771.567,78.0384,0.791776,79.1776,78.7988
781.496,124.132,125.935,,781.496,152.728,157.234,,781.496,81.2765,0.800939,80.0939,81.1352
791.448,113.089,112.065,,791.448,141.361,142.168,,791.448,80.0001,0.788259,78.8259,80.6888
801.421,98.908,103.319,,801.421,122.665,127.915,,801.421,80.6326,0.807713,80.7713,79.2891
811.416,104.556,102.118,,811.416,129.961,126.543,,811.416,80.4518,0.806982,80.6982,79.1932
821.434,131.839,120.041,,821.434,138.133,134.892,,821.434,95.4435,0.889911,88.9911,85.1536
831.473,202.455,181.624,,831.473,195.668,176.237,,831.473,103.469,1.03056,103.056,97.2208
841.534,343.012,268.684,,841.534,285.606,236.25,,841.534,120.1,1.13729,113.729,107.317
851.617,806.928,658.296,,851.617,619.823,518.711,,851.617,130.187,1.2691,126.91,121.192
861.722,1141.04,1060.62,,861.722,896.192,830.159,,861.722,127.321,1.27761,127.761,127.769
871.849,1348.766,1270.83,,871.849,1055.679,992.635,,871.849,127.763,1.28025,128.025,127.831
881.998,1810.492,1661.76,,881.998,1457.156,1327.87,,881.998,124.248,1.25145,125.145,126.68
892.168,2034.446,2013.82,,892.168,1657.649,1631.54,,892.168,122.731,1.23431,123.431,124.014
902.36,1535.284,1707.25,,902.36,1291.898,1428.56,,902.36,118.839,1.19508,119.508,121.732
912.574,974.95,1133.12,,912.574,871.197,990.84,,912.574,111.909,1.14359,114.359,117.443
922.809,632.729,728.596,,922.809,612.411,680.716,,922.809,103.318,1.07034,107.034,111.198
933.066,409.05,474.628,,933.066,425.348,477.003,,933.066,96.1683,0.995022,99.5022,103.331
943.345,268.732,308.019,,943.345,306.462,338.555,,943.345,87.6885,0.909805,90.9805,94.7254
953.645,187.229,209.312,,953.645,242.479,260.836,,953.645,77.2145,0.802466,80.2466,85.7526
963.966,147.358,163.914,,963.966,221.946,228.965,,963.966,66.3936,0.715894,71.5894,77.2702
974.31,138.392,139.484,,974.31,208.952,213.622,,974.31,66.2315,0.652949,65.2949,67.7894
984.674,130.695,133.553,,984.674,233.406,226.951,,984.674,55.9947,0.588465,58.8465,63.4289
995.06,130.265,131.638,,995.06,270.306,258.924,,995.06,48.1917,0.508403,50.8403,54.9987
1005.467,141.557,138.732,,1005.467,318.926,300.607,,1005.467,44.3855,0.461507,46.1507,48.7626
1015.896,155.752,145.632,,1015.896,420.082,386.276,,1015.896,37.0766,0.377016,37.7016,41.8847
1026.346,169.758,167.783,,1026.346,555.319,518.279,,1026.346,30.5695,0.323731,32.3731,35.1196
1036.817,155.757,161.243,,1036.817,599.091,590.118,,1036.817,25.9989,0.273239,27.3239,29.535
1047.31,142.84,147.217,,1047.31,620.668,614.548,,1047.31,23.0139,0.239553,23.9553,25.631
1057.823,127.731,133.874,,1057.823,615.324,615.94,,1057.823,20.7583,0.217349,21.7349,22.5102
1068.358,114.885,119.092,,1068.358,584.328,593.024,,1068.358,19.661,0.200822,20.0822,20.7151
1078.914,117.757,115.481,,1078.914,555.59,563.33,,1078.914,21.1949,0.204997,20.4997,20.3093
1089.491,120.98,122.021,,1089.491,525.288,534.659,,1089.491,23.0312,0.228223,22.8223,21.524
1100.042,127.009,122.275,,1100.042,501.059,511.609,,1100.042,25.3481,0.239,23.9,23.1708
1110.472,132.025,133.689,,1110.472,471.264,479.163,,1110.472,28.0151,0.279004,27.9004,25.825
1120.902,129.935,125.152,,1120.902,437.63,449.534,,1120.902,29.6906,0.278404,27.8404,27.7132
1131.332,116.012,120.053,,1131.332,398.519,410.715,,1131.332,29.1108,0.292303,29.2303,28.7233
1141.762,97.619,101.164,,1141.762,351.293,368.113,,1141.762,27.7885,0.274816,27.4816,28.7327
1152.192,84.393,88.0628,,1152.192,312.68,325.133,,1152.192,26.9902,0.270852,27.0852,27.4494
1162.622,69.968,72.5214,,1162.622,271.589,285.781,,1162.622,25.7625,0.253766,25.3766,26.0509
1173.052,59.621,65.1957,,1173.052,238.568,249.524,,1173.052,24.9912,0.26128,26.128,26.1931
1183.482,71.261,65.3701,,1183.482,213.346,223.527,,1183.482,33.4016,0.292448,29.2448,26.9068
1193.912,78.437,68.811,,1193.912,191.474,199.324,,1193.912,40.9648,0.345221,34.5221,31.8294
1204.342,110.155,99.1393,,1204.342,191.596,189.851,,1204.342,57.4934,0.522196,52.2196,43.447
1214.773,109.238,119.958,,1214.773,172.63,176.856,,1214.773,63.2787,0.678279,67.8279,62.2033
1225.203,59.149,73.6672,,1225.203,113.406,130.44,,1225.203,52.1569,0.564757,56.4757,62.5251
1235.633,30.08,35.0754,,1235.633,91.21,97.7455,,1235.633,32.9788,0.358844,35.8844,45.441
1242.586,19.656,24.7858,,1242.586,69.901,79.3938,,1242.586,28.1198,0.312188,31.2188,